Channel			  :,CH1
Frequency			  :,F=1.498kHz
Period 			  :,T=667.4us
PK-PK				  :,Vpp=1.300V
Average			  :,V=-12.63mV
Vertical pos		  :,1000.00mV
Probe attenuation	  :,1X
Voltage per ADC value:,20.00mV
Time interval		  :,0.40uS

index,CH1_coltage(mV)
0,380.00
1,380.00
2,380.00
3,360.00
4,380.00
5,360.00
6,360.00
7,360.00
8,340.00
9,360.00
10,340.00
11,360.00
12,360.00
13,340.00
14,340.00
15,340.00
16,360.00
17,340.00
18,360.00
19,340.00
20,340.00
21,340.00
22,340.00
23,340.00
24,340.00
25,340.00
26,340.00
27,340.00
28,340.00
29,340.00
30,340.00
31,320.00
32,320.00
33,320.00
34,320.00
35,320.00
36,320.00
37,320.00
38,320.00
39,320.00
40,320.00
41,320.00
42,320.00
43,320.00
44,320.00
45,320.00
46,320.00
47,320.00
48,320.00
49,320.00
50,320.00
51,320.00
52,320.00
53,320.00
54,320.00
55,320.00
56,300.00
57,300.00
58,300.00
59,300.00
60,300.00
61,300.00
62,300.00
63,320.00
64,320.00
65,300.00
66,300.00
67,280.00
68,260.00
69,280.00
70,260.00
71,300.00
72,300.00
73,280.00
74,300.00
75,300.00
76,300.00
77,280.00
78,280.00
79,280.00
80,280.00
81,260.00
82,260.00
83,260.00
84,260.00
85,260.00
86,260.00
87,260.00
88,280.00
89,260.00
90,280.00
91,260.00
92,240.00
93,260.00
94,240.00
95,240.00
96,260.00
97,260.00
98,240.00
99,240.00
100,240.00
101,240.00
102,240.00
103,240.00
104,240.00
105,240.00
106,240.00
107,240.00
108,240.00
109,240.00
110,240.00
111,240.00
112,240.00
113,200.00
114,200.00
115,220.00
116,220.00
117,200.00
118,220.00
119,200.00
120,200.00
121,200.00
122,200.00
123,200.00
124,180.00
125,200.00
126,180.00
127,200.00
128,180.00
129,180.00
130,180.00
131,180.00
132,200.00
133,180.00
134,200.00
135,180.00
136,180.00
137,180.00
138,200.00
139,160.00
140,160.00
141,160.00
142,160.00
143,160.00
144,160.00
145,160.00
146,160.00
147,160.00
148,160.00
149,160.00
150,160.00
151,160.00
152,160.00
153,140.00
154,140.00
155,160.00
156,160.00
157,140.00
158,140.00
159,140.00
160,140.00
161,140.00
162,120.00
163,120.00
164,120.00
165,120.00
166,120.00
167,120.00
168,120.00
169,120.00
170,120.00
171,140.00
172,120.00
173,120.00
174,120.00
175,120.00
176,120.00
177,120.00
178,120.00
179,120.00
180,120.00
181,120.00
182,120.00
183,120.00
184,120.00
185,120.00
186,120.00
187,100.00
188,120.00
189,120.00
190,120.00
191,100.00
192,100.00
193,100.00
194,100.00
195,120.00
196,100.00
197,120.00
198,100.00
199,100.00
200,100.00
201,100.00
202,100.00
203,80.00
204,100.00
205,100.00
206,80.00
207,80.00
208,80.00
209,80.00
210,80.00
211,80.00
212,80.00
213,60.00
214,80.00
215,40.00
216,80.00
217,60.00
218,60.00
219,60.00
220,80.00
221,60.00
222,60.00
223,60.00
224,60.00
225,40.00
226,20.00
227,20.00
228,40.00
229,60.00
230,60.00
231,40.00
232,40.00
233,40.00
234,20.00
235,20.00
236,20.00
237,20.00
238,20.00
239,20.00
240,20.00
241,20.00
242,20.00
243,20.00
244,20.00
245,20.00
246,20.00
247,20.00
248,20.00
249,20.00
250,0.00
251,0.00
252,-20.00
253,0.00
254,0.00
255,-20.00
256,20.00
257,20.00
258,-20.00
259,-20.00
260,-20.00
261,-20.00
262,-20.00
263,-20.00
264,-20.00
265,-20.00
266,-20.00
267,-20.00
268,-20.00
269,-20.00
270,-20.00
271,-40.00
272,-20.00
273,-40.00
274,-40.00
275,-40.00
276,-40.00
277,-20.00
278,-40.00
279,-40.00
280,-40.00
281,-40.00
282,-40.00
283,-60.00
284,-60.00
285,-60.00
286,-60.00
287,-60.00
288,-60.00
289,-60.00
290,-60.00
291,-60.00
292,-60.00
293,-60.00
294,-60.00
295,-60.00
296,-80.00
297,-60.00
298,-80.00
299,-80.00
300,-60.00
301,-60.00
302,-80.00
303,-80.00
304,-60.00
305,-60.00
306,-80.00
307,-100.00
308,-80.00
309,-60.00
310,-100.00
311,-120.00
312,-100.00
313,-80.00
314,-80.00
315,-100.00
316,-80.00
317,-80.00
318,-120.00
319,-120.00
320,-120.00
321,-120.00
322,-120.00
323,-120.00
324,-120.00
325,-120.00
326,-120.00
327,-120.00
328,-100.00
329,-120.00
330,-120.00
331,-120.00
332,-120.00
333,-120.00
334,-140.00
335,-140.00
336,-140.00
337,-140.00
338,-160.00
339,-160.00
340,-140.00
341,-140.00
342,-160.00
343,-160.00
344,-180.00
345,-180.00
346,-140.00
347,-160.00
348,-160.00
349,-180.00
350,-180.00
351,-160.00
352,-140.00
353,-160.00
354,-160.00
355,-160.00
356,-160.00
357,-160.00
358,-180.00
359,-160.00
360,-160.00
361,-160.00
362,-180.00
363,-160.00
364,-160.00
365,-180.00
366,-180.00
367,-180.00
368,-180.00
369,-180.00
370,-180.00
371,-180.00
372,-180.00
373,-180.00
374,-180.00
375,-180.00
376,-180.00
377,-180.00
378,-200.00
379,-200.00
380,-200.00
381,-200.00
382,-220.00
383,-200.00
384,-220.00
385,-200.00
386,-200.00
387,-200.00
388,-200.00
389,-200.00
390,-220.00
391,-220.00
392,-220.00
393,-240.00
394,-240.00
395,-240.00
396,-220.00
397,-220.00
398,-220.00
399,-240.00
400,-240.00
401,-240.00
402,-240.00
403,-240.00
404,-240.00
405,-240.00
406,-240.00
407,-240.00
408,-240.00
409,-240.00
410,-240.00
411,-240.00
412,-240.00
413,-240.00
414,-240.00
415,-240.00
416,-260.00
417,-260.00
418,-260.00
419,-260.00
420,-260.00
421,-260.00
422,-260.00
423,-260.00
424,-260.00
425,-260.00
426,-260.00
427,-260.00
428,-260.00
429,-260.00
430,-260.00
431,-260.00
432,-260.00
433,-260.00
434,-280.00
435,-260.00
436,-260.00
437,-280.00
438,-280.00
439,-280.00
440,-280.00
441,-280.00
442,-280.00
443,-300.00
444,-300.00
445,-300.00
446,-300.00
447,-280.00
448,-280.00
449,-280.00
450,-300.00
451,-300.00
452,-300.00
453,-320.00
454,-300.00
455,-300.00
456,-300.00
457,-300.00
458,-300.00
459,-300.00
460,-300.00
461,-300.00
462,-300.00
463,-300.00
464,-320.00
465,-320.00
466,-320.00
467,-320.00
468,-320.00
469,-320.00
470,-320.00
471,-300.00
472,-320.00
473,-320.00
474,-320.00
475,-340.00
476,-340.00
477,-340.00
478,-340.00
479,-340.00
480,-320.00
481,-340.00
482,-340.00
483,-340.00
484,-340.00
485,-340.00
486,-340.00
487,-360.00
488,-340.00
489,-360.00
490,-340.00
491,-360.00
492,-340.00
493,-340.00
494,-340.00
495,-380.00
496,-360.00
497,-380.00
498,-380.00
499,-380.00
500,-380.00
501,-380.00
502,-380.00
503,-380.00
504,-380.00
505,-380.00
506,-380.00
507,-380.00
508,-380.00
509,-380.00
510,-380.00
511,-400.00
512,-420.00
513,-400.00
514,-380.00
515,-380.00
516,-400.00
517,-400.00
518,-380.00
519,-400.00
520,-400.00
521,-420.00
522,-400.00
523,-420.00
524,-420.00
525,-420.00
526,-420.00
527,-400.00
528,-420.00
529,-420.00
530,-400.00
531,-420.00
532,-420.00
533,-420.00
534,-420.00
535,-420.00
536,-420.00
537,-420.00
538,-420.00
539,-420.00
540,-420.00
541,-420.00
542,-420.00
543,-440.00
544,-440.00
545,-440.00
546,-440.00
547,-460.00
548,-440.00
549,-440.00
550,-440.00
551,-440.00
552,-440.00
553,-440.00
554,-440.00
555,-460.00
556,-440.00
557,-440.00
558,-440.00
559,-440.00
560,-440.00
561,-440.00
562,-440.00
563,-440.00
564,-460.00
565,-440.00
566,-440.00
567,-440.00
568,-440.00
569,-460.00
570,-440.00
571,-460.00
572,-460.00
573,-440.00
574,-440.00
575,-460.00
576,-440.00
577,-460.00
578,-440.00
579,-460.00
580,-440.00
581,-460.00
582,-460.00
583,-460.00
584,-460.00
585,-460.00
586,-460.00
587,-460.00
588,-460.00
589,-460.00
590,-460.00
591,-460.00
592,-460.00
593,-480.00
594,-480.00
595,-480.00
596,-480.00
597,-480.00
598,-480.00
599,-480.00
600,-480.00
601,-480.00
602,-480.00
603,-480.00
604,-500.00
605,-500.00
606,-480.00
607,-500.00
608,-480.00
609,-460.00
610,-480.00
611,-480.00
612,-480.00
613,-480.00
614,-500.00
615,-500.00
616,-500.00
617,-520.00
618,-500.00
619,-500.00
620,-480.00
621,-480.00
622,-500.00
623,-500.00
624,-520.00
625,-520.00
626,-520.00
627,-520.00
628,-500.00
629,-520.00
630,-520.00
631,-500.00
632,-520.00
633,-520.00
634,-500.00
635,-520.00
636,-500.00
637,-520.00
638,-520.00
639,-540.00
640,-520.00
641,-520.00
642,-520.00
643,-540.00
644,-540.00
645,-520.00
646,-520.00
647,-540.00
648,-520.00
649,-520.00
650,-540.00
651,-520.00
652,-540.00
653,-560.00
654,-540.00
655,-560.00
656,-540.00
657,-560.00
658,-560.00
659,-540.00
660,-540.00
661,-540.00
662,-560.00
663,-560.00
664,-560.00
665,-560.00
666,-560.00
667,-560.00
668,-560.00
669,-540.00
670,-560.00
671,-560.00
672,-560.00
673,-540.00
674,-560.00
675,-560.00
676,-560.00
677,-560.00
678,-560.00
679,-560.00
680,-560.00
681,-560.00
682,-560.00
683,-580.00
684,-560.00
685,-560.00
686,-580.00
687,-580.00
688,-560.00
689,-580.00
690,-580.00
691,-600.00
692,-560.00
693,-600.00
694,-560.00
695,-600.00
696,-560.00
697,-600.00
698,-580.00
699,-580.00
700,-580.00
701,-600.00
702,-600.00
703,-580.00
704,-600.00
705,-600.00
706,-580.00
707,-600.00
708,-580.00
709,-620.00
710,-580.00
711,-600.00
712,-600.00
713,-600.00
714,-600.00
715,-560.00
716,-600.00
717,-600.00
718,-580.00
719,-580.00
720,-580.00
721,-580.00
722,-620.00
723,-600.00
724,-600.00
725,-580.00
726,-600.00
727,-600.00
728,-620.00
729,-600.00
730,-600.00
731,-600.00
732,-580.00
733,-620.00
734,-620.00
735,-600.00
736,-600.00
737,-580.00
738,-600.00
739,-600.00
740,-600.00
741,-600.00
742,-600.00
743,-600.00
744,-620.00
745,-600.00
746,-620.00
747,-620.00
748,-600.00
749,-600.00
750,-620.00
751,-620.00
752,-620.00
753,-620.00
754,-620.00
755,-620.00
756,-600.00
757,-620.00
758,-620.00
759,-620.00
760,-640.00
761,-620.00
762,-620.00
763,-600.00
764,-600.00
765,-620.00
766,-640.00
767,-620.00
768,-620.00
769,-640.00
770,-620.00
771,-640.00
772,-640.00
773,-640.00
774,-640.00
775,-620.00
776,-620.00
777,-620.00
778,-620.00
779,-620.00
780,-620.00
781,-640.00
782,-640.00
783,-640.00
784,-640.00
785,-640.00
786,-640.00
787,-640.00
788,-640.00
789,-640.00
790,-620.00
791,-640.00
792,-620.00
793,-640.00
794,-640.00
795,-640.00
796,-640.00
797,-640.00
798,-640.00
799,-640.00
800,-620.00
801,-640.00
802,-640.00
803,-640.00
804,-640.00
805,-640.00
806,-640.00
807,-640.00
808,-640.00
809,-640.00
810,-640.00
811,-640.00
812,-640.00
813,-640.00
814,-640.00
815,-640.00
816,-640.00
817,-640.00
818,-640.00
819,-640.00
820,-640.00
821,-640.00
822,-640.00
823,-640.00
824,-640.00
825,-620.00
826,-620.00
827,-640.00
828,-640.00
829,-620.00
830,-640.00
831,-640.00
832,-640.00
833,-640.00
834,-640.00
835,-640.00
836,-640.00
837,-640.00
838,-640.00
839,-640.00
840,-640.00
841,-640.00
842,-640.00
843,-640.00
844,-640.00
845,-640.00
846,-640.00
847,-640.00
848,-640.00
849,-640.00
850,-640.00
851,-640.00
852,-620.00
853,-640.00
854,-640.00
855,-640.00
856,-640.00
857,-640.00
858,-640.00
859,-640.00
860,-640.00
861,-640.00
862,-640.00
863,-640.00
864,-620.00
865,-640.00
866,-640.00
867,-640.00
868,-640.00
869,-640.00
870,-640.00
871,-640.00
872,-640.00
873,-640.00
874,-640.00
875,-640.00
876,-640.00
877,-640.00
878,-640.00
879,-640.00
880,-640.00
881,-640.00
882,-640.00
883,-640.00
884,-640.00
885,-640.00
886,-640.00
887,-640.00
888,-640.00
889,-620.00
890,-640.00
891,-640.00
892,-640.00
893,-640.00
894,-640.00
895,-640.00
896,-640.00
897,-640.00
898,-640.00
899,-640.00
900,-640.00
901,-640.00
902,-640.00
903,-640.00
904,-640.00
905,-640.00
906,-640.00
907,-640.00
908,-640.00
909,-620.00
910,-640.00
911,-640.00
912,-640.00
913,-620.00
914,-640.00
915,-640.00
916,-640.00
917,-640.00
918,-640.00
919,-640.00
920,-640.00
921,-620.00
922,-640.00
923,-620.00
924,-620.00
925,-640.00
926,-640.00
927,-640.00
928,-640.00
929,-640.00
930,-640.00
931,-640.00
932,-640.00
933,-640.00
934,-640.00
935,-640.00
936,-620.00
937,-620.00
938,-640.00
939,-640.00
940,-640.00
941,-640.00
942,-640.00
943,-640.00
944,-640.00
945,-640.00
946,-620.00
947,-620.00
948,-620.00
949,-640.00
950,-640.00
951,-640.00
952,-640.00
953,-640.00
954,-640.00
955,-640.00
956,-640.00
957,-640.00
958,-640.00
959,-620.00
960,-620.00
961,-620.00
962,-640.00
963,-620.00
964,-640.00
965,-620.00
966,-620.00
967,-640.00
968,-620.00
969,-640.00
970,-620.00
971,-620.00
972,-620.00
973,-620.00
974,-620.00
975,-620.00
976,-620.00
977,-620.00
978,-640.00
979,-640.00
980,-620.00
981,-620.00
982,-620.00
983,-620.00
984,-620.00
985,-620.00
986,-600.00
987,-620.00
988,-640.00
989,-620.00
990,-640.00
991,-620.00
992,-620.00
993,-620.00
994,-620.00
995,-600.00
996,-600.00
997,-600.00
998,-600.00
999,-620.00
1000,-640.00
1001,-620.00
1002,-620.00
1003,-640.00
1004,-620.00
1005,-620.00
1006,-600.00
1007,-600.00
1008,-620.00
1009,-600.00
1010,-600.00
1011,-620.00
1012,-600.00
1013,-620.00
1014,-620.00
1015,-620.00
1016,-600.00
1017,-620.00
1018,-600.00
1019,-600.00
1020,-600.00
1021,-600.00
1022,-600.00
1023,-620.00
1024,-620.00
1025,-600.00
1026,-600.00
1027,-600.00
1028,-600.00
1029,-600.00
1030,-580.00
1031,-580.00
1032,-600.00
1033,-580.00
1034,-600.00
1035,-600.00
1036,-580.00
1037,-620.00
1038,-620.00
1039,-620.00
1040,-600.00
1041,-600.00
1042,-600.00
1043,-620.00
1044,-580.00
1045,-580.00
1046,-600.00
1047,-580.00
1048,-560.00
1049,-600.00
1050,-600.00
1051,-620.00
1052,-600.00
1053,-600.00
1054,-600.00
1055,-560.00
1056,-580.00
1057,-580.00
1058,-580.00
1059,-560.00
1060,-560.00
1061,-600.00
1062,-580.00
1063,-600.00
1064,-600.00
1065,-580.00
1066,-600.00
1067,-580.00
1068,-560.00
1069,-560.00
1070,-580.00
1071,-560.00
1072,-560.00
1073,-560.00
1074,-560.00
1075,-560.00
1076,-580.00
1077,-560.00
1078,-560.00
1079,-560.00
1080,-560.00
1081,-560.00
1082,-540.00
1083,-560.00
1084,-560.00
1085,-580.00
1086,-560.00
1087,-560.00
1088,-560.00
1089,-560.00
1090,-540.00
1091,-540.00
1092,-540.00
1093,-520.00
1094,-540.00
1095,-520.00
1096,-560.00
1097,-560.00
1098,-560.00
1099,-560.00
1100,-560.00
1101,-540.00
1102,-540.00
1103,-520.00
1104,-520.00
1105,-520.00
1106,-520.00
1107,-520.00
1108,-520.00
1109,-520.00
1110,-540.00
1111,-520.00
1112,-520.00
1113,-520.00
1114,-540.00
1115,-520.00
1116,-520.00
1117,-540.00
1118,-540.00
1119,-520.00
1120,-540.00
1121,-540.00
1122,-520.00
1123,-500.00
1124,-520.00
1125,-500.00
1126,-520.00
1127,-500.00
1128,-500.00
1129,-500.00
1130,-520.00
1131,-520.00
1132,-480.00
1133,-480.00
1134,-480.00
1135,-500.00
1136,-500.00
1137,-500.00
1138,-500.00
1139,-480.00
1140,-500.00
1141,-500.00
1142,-480.00
1143,-480.00
1144,-500.00
1145,-480.00
1146,-500.00
1147,-500.00
1148,-500.00
1149,-460.00
1150,-480.00
1151,-480.00
1152,-480.00
1153,-460.00
1154,-500.00
1155,-480.00
1156,-480.00
1157,-480.00
1158,-480.00
1159,-500.00
1160,-480.00
1161,-500.00
1162,-480.00
1163,-480.00
1164,-480.00
1165,-460.00
1166,-480.00
1167,-460.00
1168,-440.00
1169,-460.00
1170,-460.00
1171,-480.00
1172,-460.00
1173,-460.00
1174,-460.00
1175,-460.00
1176,-440.00
1177,-460.00
1178,-460.00
1179,-440.00
1180,-440.00
1181,-440.00
1182,-460.00
1183,-460.00
1184,-460.00
1185,-460.00
1186,-440.00
1187,-460.00
1188,-440.00
1189,-440.00
1190,-440.00
1191,-440.00
1192,-460.00
1193,-440.00
1194,-440.00
1195,-480.00
1196,-440.00
1197,-460.00
1198,-440.00
1199,-440.00
1200,-440.00
1201,-460.00
1202,-440.00
1203,-460.00
1204,-440.00
1205,-440.00
1206,-440.00
1207,-440.00
1208,-440.00
1209,-440.00
1210,-440.00
1211,-420.00
1212,-420.00
1213,-420.00
1214,-420.00
1215,-420.00
1216,-420.00
1217,-420.00
1218,-420.00
1219,-440.00
1220,-420.00
1221,-380.00
1222,-420.00
1223,-380.00
1224,-420.00
1225,-420.00
1226,-420.00
1227,-420.00
1228,-380.00
1229,-420.00
1230,-400.00
1231,-420.00
1232,-400.00
1233,-420.00
1234,-420.00
1235,-380.00
1236,-380.00
1237,-380.00
1238,-380.00
1239,-400.00
1240,-400.00
1241,-380.00
1242,-400.00
1243,-400.00
1244,-400.00
1245,-400.00
1246,-380.00
1247,-360.00
1248,-380.00
1249,-340.00
1250,-340.00
1251,-360.00
1252,-400.00
1253,-380.00
1254,-380.00
1255,-380.00
1256,-380.00
1257,-340.00
1258,-340.00
1259,-360.00
1260,-380.00
1261,-360.00
1262,-360.00
1263,-340.00
1264,-340.00
1265,-340.00
1266,-340.00
1267,-320.00
1268,-340.00
1269,-340.00
1270,-320.00
1271,-340.00
1272,-340.00
1273,-340.00
1274,-320.00
1275,-320.00
1276,-320.00
1277,-320.00
1278,-340.00
1279,-320.00
1280,-320.00
1281,-320.00
1282,-300.00
1283,-320.00
1284,-320.00
1285,-320.00
1286,-320.00
1287,-320.00
1288,-320.00
1289,-320.00
1290,-320.00
1291,-320.00
1292,-320.00
1293,-320.00
1294,-300.00
1295,-300.00
1296,-300.00
1297,-300.00
1298,-300.00
1299,-300.00
1300,-300.00
1301,-300.00
1302,-320.00
1303,-300.00
1304,-300.00
1305,-300.00
1306,-280.00
1307,-280.00
1308,-300.00
1309,-300.00
1310,-300.00
1311,-280.00
1312,-280.00
1313,-260.00
1314,-260.00
1315,-300.00
1316,-300.00
1317,-280.00
1318,-260.00
1319,-260.00
1320,-260.00
1321,-260.00
1322,-260.00
1323,-260.00
1324,-260.00
1325,-260.00
1326,-280.00
1327,-260.00
1328,-260.00
1329,-260.00
1330,-260.00
1331,-260.00
1332,-260.00
1333,-260.00
1334,-260.00
1335,-260.00
1336,-240.00
1337,-260.00
1338,-260.00
1339,-260.00
1340,-260.00
1341,-260.00
1342,-260.00
1343,-240.00
1344,-240.00
1345,-220.00
1346,-240.00
1347,-240.00
1348,-220.00
1349,-260.00
1350,-240.00
1351,-220.00
1352,-220.00
1353,-240.00
1354,-240.00
1355,-220.00
1356,-220.00
1357,-220.00
1358,-220.00
1359,-220.00
1360,-200.00
1361,-220.00
1362,-220.00
1363,-220.00
1364,-220.00
1365,-200.00
1366,-200.00
1367,-200.00
1368,-200.00
1369,-200.00
1370,-200.00
1371,-200.00
1372,-200.00
1373,-200.00
1374,-200.00
1375,-200.00
1376,-200.00
1377,-200.00
1378,-200.00
1379,-180.00
1380,-180.00
1381,-180.00
1382,-160.00
1383,-160.00
1384,-180.00
1385,-180.00
1386,-200.00
1387,-180.00
1388,-180.00
1389,-180.00
1390,-180.00
1391,-180.00
1392,-180.00
1393,-160.00
1394,-180.00
1395,-180.00
1396,-140.00
1397,-160.00
1398,-160.00
1399,-180.00
1400,-160.00
1401,-160.00
1402,-180.00
1403,-160.00
1404,-140.00
1405,-140.00
1406,-140.00
1407,-140.00
1408,-140.00
1409,-180.00
1410,-160.00
1411,-160.00
1412,-140.00
1413,-120.00
1414,-140.00
1415,-140.00
1416,-120.00
1417,-120.00
1418,-120.00
1419,-120.00
1420,-120.00
1421,-120.00
1422,-120.00
1423,-140.00
1424,-120.00
1425,-120.00
1426,-120.00
1427,-120.00
1428,-120.00
1429,-100.00
1430,-120.00
1431,-100.00
1432,-120.00
1433,-120.00
1434,-120.00
1435,-120.00
1436,-120.00
1437,-100.00
1438,-80.00
1439,-80.00
1440,-80.00
1441,-100.00
1442,-80.00
1443,-60.00
1444,-80.00
1445,-100.00
1446,-80.00
1447,-80.00
1448,-100.00
1449,-60.00
1450,-60.00
1451,-60.00
1452,-80.00
1453,-60.00
1454,-60.00
1455,-60.00
1456,-60.00
1457,-60.00
1458,-60.00
1459,-60.00
1460,-60.00
1461,-60.00
1462,-60.00
1463,-60.00
1464,-60.00
1465,-60.00
1466,-60.00
1467,-60.00
1468,-60.00
1469,-60.00
1470,-60.00
1471,-60.00
1472,-40.00
1473,-60.00
1474,-20.00
1475,-40.00
1476,-40.00
1477,-40.00
1478,-20.00
1479,-20.00
1480,-20.00
1481,-40.00
1482,-40.00
1483,-40.00
1484,-20.00
1485,-20.00
1486,0.00
1487,-20.00
1488,0.00
1489,-20.00
1490,-20.00
1491,-20.00
1492,0.00
1493,-20.00
1494,-20.00
1495,-20.00
1496,-20.00
1497,0.00
1498,-20.00
1499,0.00
1500,20.00
1501,0.00
1502,20.00
1503,0.00
1504,20.00
1505,20.00
1506,0.00
1507,0.00
1508,20.00
1509,20.00
1510,20.00
1511,20.00
1512,20.00
1513,20.00
1514,20.00
1515,40.00
1516,20.00
1517,20.00
1518,40.00
1519,40.00
1520,40.00
1521,40.00
1522,60.00
1523,60.00
1524,60.00
1525,60.00
1526,60.00
1527,60.00
1528,40.00
1529,60.00
1530,40.00
1531,60.00
1532,60.00
1533,60.00
1534,60.00
1535,80.00
1536,80.00
1537,80.00
1538,60.00
1539,80.00
1540,80.00
1541,60.00
1542,60.00
1543,80.00
1544,80.00
1545,100.00
1546,80.00
1547,100.00
1548,100.00
1549,100.00
1550,100.00
1551,100.00
1552,100.00
1553,80.00
1554,100.00
1555,100.00
1556,120.00
1557,100.00
1558,120.00
1559,120.00
1560,120.00
1561,100.00
1562,120.00
1563,120.00
1564,120.00
1565,120.00
1566,100.00
1567,120.00
1568,120.00
1569,120.00
1570,120.00
1571,120.00
1572,120.00
1573,120.00
1574,120.00
1575,120.00
1576,120.00
1577,120.00
1578,120.00
1579,120.00
1580,140.00
1581,120.00
1582,120.00
1583,140.00
1584,120.00
1585,120.00
1586,140.00
1587,120.00
1588,140.00
1589,120.00
1590,120.00
1591,140.00
1592,140.00
1593,140.00
1594,140.00
1595,120.00
1596,120.00
1597,160.00
1598,120.00
1599,160.00
1600,160.00
1601,160.00
1602,160.00
1603,160.00
1604,160.00
1605,180.00
1606,160.00
1607,180.00
1608,180.00
1609,200.00
1610,160.00
1611,160.00
1612,200.00
1613,160.00
1614,160.00
1615,180.00
1616,160.00
1617,180.00
1618,180.00
1619,200.00
1620,200.00
1621,200.00
1622,200.00
1623,200.00
1624,180.00
1625,200.00
1626,180.00
1627,200.00
1628,220.00
1629,200.00
1630,220.00
1631,220.00
1632,220.00
1633,200.00
1634,220.00
1635,200.00
1636,200.00
1637,220.00
1638,200.00
1639,240.00
1640,220.00
1641,240.00
1642,240.00
1643,240.00
1644,240.00
1645,260.00
1646,260.00
1647,220.00
1648,260.00
1649,240.00
1650,240.00
1651,260.00
1652,260.00
1653,240.00
1654,260.00
1655,260.00
1656,260.00
1657,260.00
1658,280.00
1659,280.00
1660,280.00
1661,260.00
1662,260.00
1663,260.00
1664,280.00
1665,280.00
1666,280.00
1667,280.00
1668,280.00
1669,280.00
1670,280.00
1671,260.00
1672,280.00
1673,280.00
1674,280.00
1675,280.00
1676,260.00
1677,300.00
1678,300.00
1679,280.00
1680,280.00
1681,280.00
1682,280.00
1683,260.00
1684,260.00
1685,280.00
1686,280.00
1687,300.00
1688,300.00
1689,300.00
1690,320.00
1691,320.00
1692,320.00
1693,320.00
1694,320.00
1695,320.00
1696,320.00
1697,300.00
1698,300.00
1699,320.00
1700,320.00
1701,320.00
1702,320.00
1703,320.00
1704,320.00
1705,320.00
1706,320.00
1707,320.00
1708,320.00
1709,320.00
1710,320.00
1711,320.00
1712,320.00
1713,340.00
1714,320.00
1715,340.00
1716,340.00
1717,340.00
1718,340.00
1719,320.00
1720,340.00
1721,320.00
1722,320.00
1723,340.00
1724,340.00
1725,360.00
1726,340.00
1727,340.00
1728,340.00
1729,340.00
1730,360.00
1731,340.00
1732,360.00
1733,360.00
1734,340.00
1735,360.00
1736,360.00
1737,360.00
1738,360.00
1739,360.00
1740,360.00
1741,380.00
1742,380.00
1743,360.00
1744,360.00
1745,380.00
1746,380.00
1747,360.00
1748,380.00
1749,380.00
1750,360.00
1751,380.00
1752,380.00
1753,400.00
1754,360.00
1755,400.00
1756,380.00
1757,400.00
1758,380.00
1759,380.00
1760,400.00
1761,380.00
1762,380.00
1763,380.00
1764,400.00
1765,400.00
1766,400.00
1767,400.00
1768,380.00
1769,400.00
1770,400.00
1771,400.00
1772,420.00
1773,420.00
1774,400.00
1775,420.00
1776,400.00
1777,420.00
1778,420.00
1779,420.00
1780,400.00
1781,420.00
1782,400.00
1783,400.00
1784,420.00
1785,420.00
1786,400.00
1787,420.00
1788,440.00
1789,440.00
1790,420.00
1791,400.00
1792,420.00
1793,420.00
1794,420.00
1795,440.00
1796,440.00
1797,420.00
1798,460.00
1799,420.00
1800,420.00
1801,400.00
1802,420.00
1803,420.00
1804,420.00
1805,440.00
1806,440.00
1807,440.00
1808,420.00
1809,460.00
1810,460.00
1811,440.00
1812,460.00
1813,460.00
1814,460.00
1815,460.00
1816,460.00
1817,460.00
1818,460.00
1819,460.00
1820,460.00
1821,460.00
1822,480.00
1823,460.00
1824,460.00
1825,480.00
1826,460.00
1827,460.00
1828,460.00
1829,480.00
1830,460.00
1831,480.00
1832,480.00
1833,480.00
1834,500.00
1835,480.00
1836,500.00
1837,480.00
1838,480.00
1839,480.00
1840,460.00
1841,500.00
1842,500.00
1843,500.00
1844,500.00
1845,480.00
1846,500.00
1847,500.00
1848,500.00
1849,500.00
1850,500.00
1851,500.00
1852,500.00
1853,500.00
1854,500.00
1855,500.00
1856,500.00
1857,500.00
1858,500.00
1859,500.00
1860,500.00
1861,480.00
1862,500.00
1863,500.00
1864,500.00
1865,500.00
1866,500.00
1867,500.00
1868,520.00
1869,500.00
1870,500.00
1871,500.00
1872,500.00
1873,500.00
1874,500.00
1875,500.00
1876,500.00
1877,500.00
1878,500.00
1879,520.00
1880,500.00
1881,520.00
1882,520.00
1883,500.00
1884,500.00
1885,500.00
1886,500.00
1887,520.00
1888,520.00
1889,520.00
1890,520.00
1891,520.00
1892,520.00
1893,520.00
1894,540.00
1895,520.00
1896,520.00
1897,520.00
1898,520.00
1899,520.00
1900,540.00
1901,520.00
1902,540.00
1903,540.00
1904,540.00
1905,520.00
1906,540.00
1907,520.00
1908,520.00
1909,520.00
1910,540.00
1911,540.00
1912,540.00
1913,540.00
1914,540.00
1915,540.00
1916,540.00
1917,540.00
1918,540.00
1919,540.00
1920,540.00
1921,540.00
1922,540.00
1923,540.00
1924,540.00
1925,540.00
1926,560.00
1927,540.00
1928,540.00
1929,560.00
1930,560.00
1931,560.00
1932,540.00
1933,560.00
1934,540.00
1935,540.00
1936,560.00
1937,560.00
1938,560.00
1939,560.00
1940,560.00
1941,560.00
1942,560.00
1943,540.00
1944,560.00
1945,560.00
1946,560.00
1947,560.00
1948,560.00
1949,560.00
1950,560.00
1951,560.00
1952,560.00
1953,560.00
1954,560.00
1955,560.00
1956,560.00
1957,560.00
1958,560.00
1959,560.00
1960,580.00
1961,580.00
1962,560.00
1963,580.00
1964,580.00
1965,560.00
1966,560.00
1967,580.00
1968,560.00
1969,580.00
1970,580.00
1971,560.00
1972,580.00
1973,560.00
1974,560.00
1975,580.00
1976,580.00
1977,600.00
1978,560.00
1979,580.00
1980,560.00
1981,560.00
1982,560.00
1983,560.00
1984,580.00
1985,580.00
1986,600.00
1987,580.00
1988,600.00
1989,600.00
1990,580.00
1991,580.00
1992,600.00
1993,580.00
1994,600.00
1995,600.00
1996,600.00
1997,600.00
1998,600.00
1999,600.00
2000,600.00
2001,600.00
2002,580.00
2003,580.00
2004,580.00
2005,600.00
2006,600.00
2007,600.00
2008,600.00
2009,600.00
2010,600.00
2011,600.00
2012,600.00
2013,600.00
2014,600.00
2015,580.00
2016,580.00
2017,600.00
2018,600.00
2019,600.00
2020,600.00
2021,600.00
2022,600.00
2023,600.00
2024,620.00
2025,600.00
2026,600.00
2027,600.00
2028,600.00
2029,600.00
2030,600.00
2031,600.00
2032,600.00
2033,600.00
2034,600.00
2035,600.00
2036,600.00
2037,600.00
2038,600.00
2039,600.00
2040,600.00
2041,600.00
2042,600.00
2043,600.00
2044,600.00
2045,600.00
2046,600.00
2047,600.00
2048,600.00
2049,600.00
2050,600.00
2051,600.00
2052,600.00
2053,600.00
2054,600.00
2055,600.00
2056,600.00
2057,620.00
2058,600.00
2059,620.00
2060,600.00
2061,620.00
2062,600.00
2063,600.00
2064,600.00
2065,600.00
2066,620.00
2067,600.00
2068,600.00
2069,620.00
2070,600.00
2071,600.00
2072,620.00
2073,620.00
2074,620.00
2075,620.00
2076,620.00
2077,600.00
2078,600.00
2079,620.00
2080,620.00
2081,620.00
2082,600.00
2083,600.00
2084,600.00
2085,600.00
2086,600.00
2087,600.00
2088,600.00
2089,620.00
2090,600.00
2091,600.00
2092,620.00
2093,600.00
2094,620.00
2095,640.00
2096,620.00
2097,620.00
2098,600.00
2099,600.00
2100,600.00
2101,600.00
2102,620.00
2103,620.00
2104,600.00
2105,600.00
2106,600.00
2107,620.00
2108,600.00
2109,600.00
2110,620.00
2111,600.00
2112,600.00
2113,620.00
2114,600.00
2115,600.00
2116,600.00
2117,600.00
2118,600.00
2119,620.00
2120,600.00
2121,620.00
2122,600.00
2123,620.00
2124,600.00
2125,600.00
2126,600.00
2127,600.00
2128,600.00
2129,620.00
2130,600.00
2131,600.00
2132,620.00
2133,620.00
2134,600.00
2135,600.00
2136,600.00
2137,620.00
2138,620.00
2139,600.00
2140,600.00
2141,600.00
2142,600.00
2143,620.00
2144,600.00
2145,620.00
2146,600.00
2147,600.00
2148,600.00
2149,600.00
2150,600.00
2151,600.00
2152,620.00
2153,600.00
2154,600.00
2155,620.00
2156,600.00
2157,620.00
2158,600.00
2159,600.00
2160,600.00
2161,600.00
2162,600.00
2163,600.00
2164,600.00
2165,600.00
2166,600.00
2167,620.00
2168,600.00
2169,620.00
2170,600.00
2171,600.00
2172,600.00
2173,600.00
2174,600.00
2175,600.00
2176,600.00
2177,600.00
2178,600.00
2179,600.00
2180,600.00
2181,600.00
2182,600.00
2183,600.00
2184,600.00
2185,600.00
2186,600.00
2187,600.00
2188,600.00
2189,600.00
2190,600.00
2191,600.00
2192,600.00
2193,600.00
2194,600.00
2195,600.00
2196,600.00
2197,600.00
2198,600.00
2199,600.00
2200,600.00
2201,600.00
2202,600.00
2203,600.00
2204,600.00
2205,600.00
2206,600.00
2207,580.00
2208,580.00
2209,580.00
2210,560.00
2211,600.00
2212,580.00
2213,600.00
2214,580.00
2215,600.00
2216,580.00
2217,600.00
2218,580.00
2219,580.00
2220,600.00
2221,580.00
2222,580.00
2223,580.00
2224,580.00
2225,580.00
2226,580.00
2227,580.00
2228,580.00
2229,600.00
2230,580.00
2231,560.00
2232,560.00
2233,560.00
2234,580.00
2235,580.00
2236,560.00
2237,580.00
2238,560.00
2239,560.00
2240,580.00
2241,560.00
2242,560.00
2243,560.00
2244,560.00
2245,540.00
2246,560.00
2247,560.00
2248,600.00
2249,560.00
2250,560.00
2251,580.00
2252,560.00
2253,560.00
2254,560.00
2255,560.00
2256,560.00
2257,540.00
2258,560.00
2259,560.00
2260,560.00
2261,560.00
2262,560.00
2263,560.00
2264,560.00
2265,560.00
2266,560.00
2267,540.00
2268,540.00
2269,540.00
2270,540.00
2271,560.00
2272,560.00
2273,560.00
2274,560.00
2275,540.00
2276,560.00
2277,540.00
2278,560.00
2279,540.00
2280,560.00
2281,540.00
2282,540.00
2283,560.00
2284,540.00
2285,540.00
2286,540.00
2287,540.00
2288,540.00
2289,560.00
2290,540.00
2291,540.00
2292,540.00
2293,520.00
2294,540.00
2295,540.00
2296,540.00
2297,520.00
2298,540.00
2299,520.00
2300,540.00
2301,540.00
2302,520.00
2303,540.00
2304,520.00
2305,520.00
2306,520.00
2307,520.00
2308,520.00
2309,520.00
2310,520.00
2311,520.00
2312,520.00
2313,520.00
2314,520.00
2315,520.00
2316,520.00
2317,520.00
2318,500.00
2319,500.00
2320,520.00
2321,520.00
2322,520.00
2323,520.00
2324,520.00
2325,520.00
2326,520.00
2327,500.00
2328,500.00
2329,500.00
2330,500.00
2331,500.00
2332,500.00
2333,520.00
2334,500.00
2335,500.00
2336,520.00
2337,500.00
2338,500.00
2339,500.00
2340,500.00
2341,500.00
2342,500.00
2343,500.00
2344,500.00
2345,500.00
2346,500.00
2347,500.00
2348,500.00
2349,500.00
2350,500.00
2351,500.00
2352,500.00
2353,500.00
2354,500.00
2355,500.00
2356,500.00
2357,500.00
2358,500.00
2359,500.00
2360,500.00
2361,500.00
2362,500.00
2363,500.00
2364,480.00
2365,480.00
2366,460.00
2367,460.00
2368,480.00
2369,500.00
2370,480.00
2371,480.00
2372,480.00
2373,480.00
2374,500.00
2375,480.00
2376,460.00
2377,460.00
2378,460.00
2379,480.00
2380,460.00
2381,460.00
2382,480.00
2383,460.00
2384,480.00
2385,460.00
2386,460.00
2387,480.00
2388,460.00
2389,460.00
2390,440.00
2391,440.00
2392,460.00
2393,440.00
2394,440.00
2395,460.00
2396,460.00
2397,460.00
2398,460.00
2399,460.00
2400,420.00
2401,420.00
2402,440.00
2403,440.00
2404,420.00
2405,440.00
2406,460.00
2407,420.00
2408,460.00
2409,440.00
2410,420.00
2411,420.00
2412,420.00
2413,400.00
2414,420.00
2415,420.00
2416,440.00
2417,420.00
2418,400.00
2419,420.00
2420,420.00
2421,420.00
2422,420.00
2423,400.00
2424,420.00
2425,400.00
2426,400.00
2427,400.00
2428,400.00
2429,420.00
2430,420.00
2431,420.00
2432,420.00
2433,400.00
2434,400.00
2435,400.00
2436,400.00
2437,400.00
2438,400.00
2439,400.00
2440,400.00
2441,400.00
2442,380.00
2443,400.00
2444,380.00
2445,380.00
2446,380.00
2447,380.00
2448,380.00
2449,380.00
2450,380.00
2451,380.00
2452,380.00
2453,380.00
2454,380.00
2455,380.00
2456,380.00
2457,380.00
2458,380.00
2459,380.00
2460,380.00
2461,360.00
2462,360.00
2463,340.00
2464,340.00
2465,360.00
2466,360.00
2467,360.00
2468,360.00
2469,360.00
2470,360.00
2471,340.00
2472,340.00
2473,340.00
2474,340.00
2475,340.00
2476,340.00
2477,340.00
2478,340.00
2479,340.00
2480,340.00
2481,340.00
2482,340.00
2483,340.00
2484,320.00
2485,320.00
2486,320.00
2487,320.00
2488,320.00
2489,320.00
2490,320.00
2491,320.00
2492,320.00
2493,320.00
2494,320.00
2495,320.00
2496,320.00
2497,320.00
2498,320.00
2499,320.00
2500,320.00
2501,320.00
2502,320.00
2503,320.00
2504,320.00
2505,320.00
2506,320.00
2507,320.00
2508,320.00
2509,320.00
2510,300.00
2511,300.00
2512,300.00
2513,320.00
2514,300.00
2515,300.00
2516,320.00
2517,300.00
2518,300.00
2519,300.00
2520,300.00
2521,280.00
2522,300.00
2523,260.00
2524,300.00
2525,280.00
2526,300.00
2527,280.00
2528,280.00
2529,280.00
2530,260.00
2531,280.00
2532,280.00
2533,280.00
2534,280.00
2535,280.00
2536,280.00
2537,280.00
2538,280.00
2539,280.00
2540,280.00
2541,280.00
2542,260.00
2543,260.00
2544,260.00
2545,260.00
2546,260.00
2547,260.00
2548,260.00
2549,260.00
2550,260.00
2551,260.00
2552,240.00
2553,240.00
2554,240.00
2555,260.00
2556,220.00
2557,240.00
2558,240.00
2559,240.00
2560,240.00
2561,240.00
2562,240.00
2563,240.00
2564,240.00
2565,240.00
2566,240.00
2567,240.00
2568,240.00
2569,220.00
2570,220.00
2571,200.00
2572,200.00
2573,200.00
2574,220.00
2575,220.00
2576,200.00
2577,200.00
2578,200.00
2579,200.00
2580,200.00
2581,200.00
2582,200.00
2583,180.00
2584,180.00
2585,200.00
2586,200.00
2587,180.00
2588,180.00
2589,180.00
2590,200.00
2591,180.00
2592,180.00
2593,160.00
2594,160.00
2595,160.00
2596,180.00
2597,180.00
2598,160.00
2599,160.00
2600,180.00
2601,160.00
2602,180.00
2603,160.00
2604,160.00
2605,160.00
2606,160.00
2607,160.00
2608,160.00
2609,160.00
2610,160.00
2611,160.00
2612,140.00
2613,140.00
2614,160.00
2615,140.00
2616,120.00
2617,140.00
2618,120.00
2619,120.00
2620,120.00
2621,140.00
2622,120.00
2623,120.00
2624,120.00
2625,120.00
2626,120.00
2627,120.00
2628,120.00
2629,120.00
2630,120.00
2631,120.00
2632,120.00
2633,120.00
2634,120.00
2635,120.00
2636,120.00
2637,120.00
2638,120.00
2639,120.00
2640,120.00
2641,120.00
2642,120.00
2643,100.00
2644,120.00
2645,100.00
2646,120.00
2647,100.00
2648,120.00
2649,120.00
2650,100.00
2651,100.00
2652,80.00
2653,100.00
2654,100.00
2655,100.00
2656,100.00
2657,100.00
2658,100.00
2659,100.00
2660,100.00
2661,100.00
2662,80.00
2663,80.00
2664,80.00
2665,80.00
2666,60.00
2667,60.00
2668,60.00
2669,80.00
2670,80.00
2671,60.00
2672,80.00
2673,80.00
2674,60.00
2675,60.00
2676,60.00
2677,40.00
2678,60.00
2679,60.00
2680,60.00
2681,60.00
2682,60.00
2683,60.00
2684,40.00
2685,40.00
2686,40.00
2687,20.00
2688,20.00
2689,40.00
2690,20.00
2691,20.00
2692,20.00
2693,20.00
2694,20.00
2695,20.00
2696,40.00
2697,20.00
2698,20.00
2699,20.00
2700,20.00
2701,0.00
2702,20.00
2703,-20.00
2704,20.00
2705,0.00
2706,20.00
2707,0.00
2708,20.00
2709,-20.00
2710,-20.00
2711,0.00
2712,-40.00
2713,-20.00
2714,-20.00
2715,-20.00
2716,-20.00
2717,-20.00
2718,0.00
2719,-20.00
2720,-20.00
2721,-20.00
2722,-20.00
2723,-20.00
2724,-20.00
2725,-40.00
2726,-40.00
2727,-40.00
2728,-40.00
2729,-40.00
2730,-20.00
2731,-20.00
2732,-40.00
2733,-40.00
2734,-20.00
2735,-40.00
2736,-40.00
2737,-60.00
2738,-60.00
2739,-60.00
2740,-40.00
2741,-60.00
2742,-40.00
2743,-60.00
2744,-60.00
2745,-60.00
2746,-60.00
2747,-60.00
2748,-60.00
2749,-60.00
2750,-60.00
2751,-60.00
2752,-80.00
2753,-60.00
2754,-60.00
2755,-60.00
2756,-60.00
2757,-80.00
2758,-60.00
2759,-100.00
2760,-100.00
2761,-100.00
2762,-100.00
2763,-80.00
2764,-80.00
2765,-80.00
2766,-100.00
2767,-80.00
2768,-80.00
2769,-80.00
2770,-100.00
2771,-120.00
2772,-100.00
2773,-120.00
2774,-120.00
2775,-120.00
2776,-120.00
2777,-120.00
2778,-120.00
2779,-120.00
2780,-80.00
2781,-120.00
2782,-120.00
2783,-140.00
2784,-120.00
2785,-120.00
2786,-120.00
2787,-120.00
2788,-140.00
2789,-120.00
2790,-120.00
2791,-120.00
2792,-120.00
2793,-120.00
2794,-140.00
2795,-140.00
2796,-160.00
2797,-180.00
2798,-160.00
2799,-160.00
2800,-160.00
2801,-140.00
2802,-160.00
2803,-140.00
2804,-140.00
2805,-140.00
2806,-160.00
2807,-160.00
2808,-180.00
2809,-180.00
2810,-160.00
2811,-160.00
2812,-160.00
2813,-160.00
2814,-160.00
2815,-180.00
2816,-160.00
2817,-160.00
2818,-160.00
2819,-180.00
2820,-180.00
2821,-180.00
2822,-180.00
2823,-180.00
2824,-180.00
2825,-180.00
2826,-160.00
2827,-180.00
2828,-180.00
2829,-200.00
2830,-180.00
2831,-200.00
2832,-200.00
2833,-200.00
2834,-200.00
2835,-200.00
2836,-200.00
2837,-200.00
2838,-200.00
2839,-200.00
2840,-200.00
2841,-200.00
2842,-220.00
2843,-220.00
2844,-220.00
2845,-220.00
2846,-220.00
2847,-240.00
2848,-220.00
2849,-220.00
2850,-220.00
2851,-240.00
2852,-220.00
2853,-220.00
2854,-220.00
2855,-240.00
2856,-240.00
2857,-240.00
2858,-240.00
2859,-240.00
2860,-240.00
2861,-240.00
2862,-240.00
2863,-240.00
2864,-240.00
2865,-240.00
2866,-240.00
2867,-260.00
2868,-260.00
2869,-260.00
2870,-260.00
2871,-260.00
2872,-260.00
2873,-260.00
2874,-260.00
2875,-260.00
2876,-260.00
2877,-260.00
2878,-260.00
2879,-260.00
2880,-260.00
2881,-260.00
2882,-280.00
2883,-260.00
2884,-260.00
2885,-260.00
2886,-260.00
2887,-260.00
2888,-260.00
2889,-260.00
2890,-260.00
2891,-280.00
2892,-280.00
2893,-280.00
2894,-280.00
2895,-280.00
2896,-300.00
2897,-280.00
2898,-280.00
2899,-280.00
2900,-300.00
2901,-300.00
2902,-300.00
2903,-300.00
2904,-300.00
2905,-300.00
2906,-300.00
2907,-300.00
2908,-300.00
2909,-300.00
2910,-300.00
2911,-300.00
2912,-300.00
2913,-300.00
2914,-300.00
2915,-300.00
2916,-300.00
2917,-320.00
2918,-300.00
2919,-300.00
2920,-320.00
2921,-300.00
2922,-320.00
2923,-320.00
2924,-300.00
2925,-320.00
2926,-320.00
2927,-320.00
2928,-320.00
2929,-340.00
2930,-340.00
2931,-320.00
2932,-320.00
2933,-320.00
2934,-340.00
2935,-320.00
2936,-320.00
2937,-340.00
2938,-340.00
2939,-340.00
2940,-340.00
2941,-340.00
2942,-340.00
2943,-340.00
2944,-340.00
2945,-340.00
2946,-340.00
2947,-340.00
2948,-340.00
2949,-360.00
2950,-360.00
2951,-380.00
2952,-380.00
2953,-380.00
2954,-360.00
2955,-400.00
2956,-380.00
2957,-380.00
2958,-380.00
2959,-380.00
2960,-380.00
2961,-400.00
2962,-380.00
2963,-420.00
2964,-380.00
2965,-380.00
2966,-400.00
2967,-400.00
2968,-380.00
2969,-380.00
2970,-380.00
2971,-380.00
2972,-400.00
2973,-420.00
2974,-420.00
2975,-400.00
2976,-420.00
2977,-400.00
2978,-400.00
2979,-400.00
2980,-400.00
2981,-400.00
2982,-400.00
2983,-420.00
2984,-420.00
2985,-420.00
2986,-420.00
2987,-420.00
2988,-420.00
2989,-420.00
2990,-420.00
2991,-420.00
2992,-420.00
2993,-420.00
2994,-420.00
2995,-420.00
2996,-420.00
2997,-420.00
2998,-420.00
2999,-440.00
3000,-440.00
3001,-440.00
3002,-440.00
3003,-440.00
3004,-440.00
3005,-460.00
3006,-440.00
3007,-440.00
3008,-440.00
3009,-440.00
3010,-440.00
3011,-440.00
3012,-440.00
3013,-440.00
3014,-460.00
3015,-440.00
3016,-440.00
3017,-440.00
3018,-440.00
3019,-460.00
3020,-440.00
3021,-440.00
3022,-460.00
3023,-460.00
3024,-440.00
3025,-440.00
3026,-440.00
3027,-440.00
3028,-440.00
3029,-460.00
3030,-460.00
3031,-460.00
3032,-460.00
3033,-460.00
3034,-460.00
3035,-460.00
3036,-460.00
3037,-460.00
3038,-460.00
3039,-460.00
3040,-460.00
3041,-460.00
3042,-460.00
3043,-460.00
3044,-480.00
3045,-480.00
3046,-480.00
3047,-480.00
3048,-460.00
3049,-460.00
3050,-480.00
3051,-480.00
3052,-460.00
3053,-460.00
3054,-480.00
3055,-480.00
3056,-480.00
3057,-480.00
3058,-480.00
3059,-480.00
3060,-480.00
3061,-480.00
3062,-480.00
3063,-480.00
3064,-480.00
3065,-480.00
3066,-500.00
3067,-500.00
3068,-500.00
3069,-500.00
3070,-520.00
3071,-500.00
3072,-500.00
3073,-500.00
3074,-500.00
3075,-520.00
3076,-500.00
3077,-500.00
3078,-520.00
3079,-520.00
3080,-520.00
3081,-520.00
3082,-500.00
3083,-520.00
3084,-520.00
3085,-540.00
3086,-500.00
3087,-520.00
3088,-520.00
3089,-520.00
3090,-520.00
3091,-540.00
3092,-540.00
3093,-540.00
3094,-520.00
3095,-540.00
3096,-540.00
3097,-520.00
3098,-520.00
3099,-520.00
3100,-520.00
3101,-520.00
3102,-540.00
3103,-560.00
3104,-540.00
3105,-560.00
3106,-560.00
3107,-560.00
3108,-540.00
3109,-560.00
3110,-520.00
3111,-520.00
3112,-540.00
3113,-540.00
3114,-540.00
3115,-560.00
3116,-540.00
3117,-560.00
3118,-560.00
3119,-540.00
3120,-540.00
3121,-540.00
3122,-560.00
3123,-540.00
3124,-540.00
3125,-560.00
3126,-560.00
3127,-560.00
3128,-580.00
3129,-560.00
3130,-560.00
3131,-560.00
3132,-560.00
3133,-560.00
3134,-560.00
3135,-560.00
3136,-560.00
3137,-560.00
3138,-560.00
3139,-560.00
3140,-580.00
3141,-580.00
3142,-560.00
3143,-580.00
3144,-560.00
3145,-600.00
3146,-560.00
3147,-580.00
3148,-580.00
3149,-580.00
3150,-580.00
3151,-600.00
3152,-580.00
3153,-580.00
3154,-600.00
3155,-580.00
3156,-620.00
3157,-580.00
3158,-600.00
3159,-560.00
3160,-600.00
3161,-600.00
3162,-600.00
3163,-620.00
3164,-600.00
3165,-600.00
3166,-600.00
3167,-580.00
3168,-580.00
3169,-620.00
3170,-600.00
3171,-600.00
3172,-560.00
3173,-620.00
3174,-580.00
3175,-600.00
3176,-600.00
3177,-600.00
3178,-620.00
3179,-600.00
3180,-600.00
3181,-600.00
3182,-600.00
3183,-580.00
3184,-600.00
3185,-600.00
3186,-580.00
3187,-600.00
3188,-600.00
3189,-600.00
3190,-580.00
3191,-620.00
3192,-620.00
3193,-600.00
3194,-600.00
3195,-600.00
3196,-600.00
3197,-600.00
3198,-620.00
3199,-600.00
3200,-600.00
3201,-600.00
3202,-600.00
3203,-600.00
3204,-600.00
3205,-600.00
3206,-600.00
3207,-620.00
3208,-600.00
3209,-600.00
3210,-620.00
3211,-620.00
3212,-600.00
3213,-620.00
3214,-620.00
3215,-620.00
3216,-620.00
3217,-620.00
3218,-620.00
3219,-620.00
3220,-620.00
3221,-600.00
3222,-620.00
3223,-640.00
3224,-640.00
3225,-640.00
3226,-640.00
3227,-620.00
3228,-620.00
3229,-620.00
3230,-620.00
3231,-600.00
3232,-620.00
3233,-620.00
3234,-640.00
3235,-620.00
3236,-640.00
3237,-640.00
3238,-640.00
3239,-640.00
3240,-620.00
3241,-640.00
3242,-620.00
3243,-640.00
3244,-620.00
3245,-620.00
3246,-640.00
3247,-640.00
3248,-640.00
3249,-620.00
3250,-640.00
3251,-640.00
3252,-640.00
3253,-620.00
3254,-640.00
3255,-640.00
3256,-640.00
3257,-640.00
3258,-640.00
3259,-640.00
3260,-640.00
3261,-640.00
3262,-640.00
3263,-640.00
3264,-640.00
3265,-620.00
3266,-640.00
3267,-640.00
3268,-640.00
3269,-640.00
3270,-640.00
3271,-640.00
3272,-640.00
3273,-640.00
3274,-640.00
3275,-640.00
3276,-640.00
3277,-640.00
3278,-640.00
3279,-640.00
3280,-640.00
3281,-640.00
3282,-640.00
3283,-640.00
3284,-640.00
3285,-640.00
3286,-660.00
3287,-640.00
3288,-640.00
3289,-640.00
3290,-640.00
3291,-640.00
3292,-640.00
3293,-620.00
3294,-640.00
3295,-640.00
3296,-640.00
3297,-640.00
3298,-640.00
3299,-640.00
3300,-620.00
3301,-640.00
3302,-640.00
3303,-640.00
3304,-640.00
3305,-640.00
3306,-640.00
3307,-640.00
3308,-640.00
3309,-640.00
3310,-640.00
3311,-640.00
3312,-640.00
3313,-640.00
3314,-640.00
3315,-640.00
3316,-640.00
3317,-640.00
3318,-640.00
3319,-640.00
3320,-640.00
3321,-640.00
3322,-640.00
3323,-640.00
3324,-640.00
3325,-640.00
3326,-640.00
3327,-640.00
3328,-640.00
3329,-640.00
3330,-640.00
3331,-640.00
3332,-640.00
3333,-640.00
3334,-640.00
3335,-640.00
3336,-640.00
3337,-640.00
3338,-640.00
3339,-640.00
3340,-640.00
3341,-640.00
3342,-640.00
3343,-640.00
3344,-640.00
3345,-640.00
3346,-640.00
3347,-640.00
3348,-640.00
3349,-640.00
3350,-640.00
3351,-640.00
3352,-640.00
3353,-640.00
3354,-640.00
3355,-640.00
3356,-640.00
3357,-660.00
3358,-640.00
3359,-640.00
3360,-640.00
3361,-640.00
3362,-640.00
3363,-640.00
3364,-640.00
3365,-640.00
3366,-640.00
3367,-640.00
3368,-640.00
3369,-640.00
3370,-640.00
3371,-640.00
3372,-640.00
3373,-640.00
3374,-640.00
3375,-640.00
3376,-640.00
3377,-640.00
3378,-620.00
3379,-640.00
3380,-640.00
3381,-640.00
3382,-640.00
3383,-640.00
3384,-640.00
3385,-640.00
3386,-620.00
3387,-640.00
3388,-640.00
3389,-640.00
3390,-640.00
3391,-640.00
3392,-640.00
3393,-640.00
3394,-640.00
3395,-640.00
3396,-640.00
3397,-640.00
3398,-620.00
3399,-620.00
3400,-640.00
3401,-640.00
3402,-640.00
3403,-640.00
3404,-640.00
3405,-640.00
3406,-640.00
3407,-640.00
3408,-640.00
3409,-620.00
3410,-620.00
3411,-620.00
3412,-640.00
3413,-640.00
3414,-640.00
3415,-620.00
3416,-620.00
3417,-640.00
3418,-640.00
3419,-640.00
3420,-640.00
3421,-640.00
3422,-640.00
3423,-640.00
3424,-620.00
3425,-620.00
3426,-620.00
3427,-620.00
3428,-640.00
3429,-640.00
3430,-640.00
3431,-640.00
3432,-640.00
3433,-640.00
3434,-600.00
3435,-620.00
3436,-640.00
3437,-640.00
3438,-620.00
3439,-640.00
3440,-620.00
3441,-620.00
3442,-620.00
3443,-620.00
3444,-620.00
3445,-620.00
3446,-620.00
3447,-620.00
3448,-620.00
3449,-620.00
3450,-620.00
3451,-600.00
3452,-620.00
3453,-620.00
3454,-620.00
3455,-620.00
3456,-620.00
3457,-620.00
3458,-620.00
3459,-620.00
3460,-620.00
3461,-600.00
3462,-600.00
3463,-620.00
3464,-620.00
3465,-600.00
3466,-620.00
3467,-620.00
3468,-640.00
3469,-620.00
3470,-620.00
3471,-620.00
3472,-600.00
3473,-600.00
3474,-620.00
3475,-600.00
3476,-600.00
3477,-600.00
3478,-600.00
3479,-620.00
3480,-620.00
3481,-600.00
3482,-600.00
3483,-640.00
3484,-580.00
3485,-600.00
3486,-600.00
3487,-600.00
3488,-600.00
3489,-600.00
3490,-600.00
3491,-600.00
3492,-600.00
3493,-600.00
3494,-600.00
3495,-580.00
3496,-620.00
3497,-580.00
3498,-580.00
3499,-600.00
3500,-600.00
3501,-600.00
3502,-600.00
3503,-580.00
3504,-580.00
3505,-580.00
3506,-560.00
3507,-580.00
3508,-580.00
3509,-560.00
3510,-600.00
3511,-580.00
3512,-600.00
3513,-580.00
3514,-580.00
3515,-600.00
3516,-580.00
3517,-560.00
3518,-560.00
3519,-560.00
3520,-560.00
3521,-560.00
3522,-560.00
3523,-560.00
3524,-560.00
3525,-560.00
3526,-560.00
3527,-560.00
3528,-560.00
3529,-560.00
3530,-560.00
3531,-560.00
3532,-560.00
3533,-560.00
3534,-560.00
3535,-560.00
3536,-540.00
3537,-560.00
3538,-560.00
3539,-560.00
3540,-560.00
3541,-560.00
3542,-560.00
3543,-560.00
3544,-560.00
3545,-540.00
3546,-540.00
3547,-560.00
3548,-560.00
3549,-560.00
3550,-540.00
3551,-560.00
3552,-560.00
3553,-560.00
3554,-560.00
3555,-540.00
3556,-540.00
3557,-520.00
3558,-520.00
3559,-520.00
3560,-540.00
3561,-540.00
3562,-540.00
3563,-540.00
3564,-540.00
3565,-560.00
3566,-540.00
3567,-540.00
3568,-540.00
3569,-520.00
3570,-500.00
3571,-520.00
3572,-520.00
3573,-540.00
3574,-520.00
3575,-540.00
3576,-520.00
3577,-520.00
3578,-520.00
3579,-500.00
3580,-500.00
3581,-520.00
3582,-500.00
3583,-520.00
3584,-500.00
3585,-520.00
3586,-500.00
3587,-520.00
3588,-520.00
3589,-520.00
3590,-500.00
3591,-500.00
3592,-500.00
3593,-500.00
3594,-500.00
3595,-500.00
3596,-480.00
3597,-480.00
3598,-500.00
3599,-500.00
3600,-500.00
3601,-480.00
3602,-480.00
3603,-480.00
3604,-480.00
3605,-500.00
3606,-480.00
3607,-480.00
3608,-480.00
3609,-460.00
3610,-500.00
3611,-480.00
3612,-480.00
3613,-460.00
3614,-480.00
3615,-460.00
3616,-460.00
3617,-460.00
3618,-460.00
3619,-460.00
3620,-460.00
3621,-460.00
3622,-460.00
3623,-480.00
3624,-460.00
3625,-480.00
3626,-480.00
3627,-460.00
3628,-460.00
3629,-440.00
3630,-440.00
3631,-440.00
3632,-440.00
3633,-440.00
3634,-460.00
3635,-460.00
3636,-440.00
3637,-440.00
3638,-440.00
3639,-440.00
3640,-440.00
3641,-440.00
3642,-440.00
3643,-440.00
3644,-440.00
3645,-440.00
3646,-460.00
3647,-440.00
3648,-440.00
3649,-440.00
3650,-440.00
3651,-440.00
3652,-440.00
3653,-440.00
3654,-440.00
3655,-440.00
3656,-440.00
3657,-440.00
3658,-460.00
3659,-460.00
3660,-440.00
3661,-440.00
3662,-420.00
3663,-440.00
3664,-440.00
3665,-440.00
3666,-460.00
3667,-440.00
3668,-420.00
3669,-440.00
3670,-440.00
3671,-440.00
3672,-420.00
3673,-420.00
3674,-440.00
3675,-420.00
3676,-420.00
3677,-400.00
3678,-420.00
3679,-420.00
3680,-440.00
3681,-420.00
3682,-440.00
3683,-420.00
3684,-420.00
3685,-420.00
3686,-420.00
3687,-400.00
3688,-380.00
3689,-400.00
3690,-380.00
3691,-380.00
3692,-380.00
3693,-380.00
3694,-400.00
3695,-400.00
3696,-420.00
3697,-400.00
3698,-380.00
3699,-400.00
3700,-380.00
3701,-380.00
3702,-360.00
3703,-380.00
3704,-360.00
3705,-380.00
3706,-380.00
3707,-400.00
3708,-380.00
3709,-380.00
3710,-380.00
3711,-340.00
3712,-360.00
3713,-360.00
3714,-340.00
3715,-340.00
3716,-360.00
3717,-360.00
3718,-340.00
3719,-360.00
3720,-340.00
3721,-340.00
3722,-340.00
3723,-340.00
3724,-340.00
3725,-340.00
3726,-320.00
3727,-340.00
3728,-340.00
3729,-340.00
3730,-340.00
3731,-340.00
3732,-340.00
3733,-340.00
3734,-320.00
3735,-340.00
3736,-300.00
3737,-320.00
3738,-320.00
3739,-300.00
3740,-320.00
3741,-320.00
3742,-320.00
3743,-320.00
3744,-320.00
3745,-320.00
3746,-320.00
3747,-300.00
3748,-320.00
3749,-300.00
3750,-300.00
3751,-300.00
3752,-320.00
3753,-320.00
3754,-300.00
3755,-300.00
3756,-320.00
3757,-320.00
3758,-300.00
3759,-300.00
3760,-300.00
3761,-300.00
3762,-280.00
3763,-300.00
3764,-300.00
3765,-280.00
3766,-280.00
3767,-300.00
3768,-300.00
3769,-280.00
3770,-280.00
3771,-280.00
3772,-280.00
3773,-260.00
3774,-260.00
3775,-260.00
3776,-260.00
3777,-280.00
3778,-260.00
3779,-260.00
3780,-260.00
3781,-260.00
3782,-260.00
3783,-260.00
3784,-260.00
3785,-260.00
3786,-260.00
3787,-260.00
3788,-240.00
3789,-260.00
3790,-260.00
3791,-240.00
3792,-260.00
3793,-260.00
3794,-260.00
3795,-240.00
3796,-260.00
3797,-240.00
3798,-240.00
3799,-240.00
3800,-240.00
3801,-240.00
3802,-240.00
3803,-240.00
3804,-240.00
3805,-240.00
3806,-240.00
3807,-240.00
3808,-220.00
3809,-220.00
3810,-240.00
3811,-220.00
3812,-220.00
3813,-220.00
3814,-220.00
3815,-240.00
3816,-200.00
3817,-200.00
3818,-220.00
3819,-200.00
3820,-200.00
3821,-220.00
3822,-200.00
3823,-200.00
3824,-200.00
3825,-200.00
3826,-200.00
3827,-200.00
3828,-200.00
3829,-200.00
3830,-200.00
3831,-180.00
3832,-200.00
3833,-180.00
3834,-200.00
3835,-180.00
3836,-180.00
3837,-180.00
3838,-180.00
3839,-180.00
3840,-180.00
3841,-180.00
3842,-180.00
3843,-180.00
3844,-160.00
3845,-180.00
3846,-180.00
3847,-160.00
3848,-160.00
3849,-180.00
3850,-180.00
3851,-180.00
3852,-180.00
3853,-180.00
3854,-160.00
3855,-160.00
3856,-140.00
3857,-160.00
3858,-140.00
3859,-160.00
3860,-140.00
3861,-180.00
3862,-160.00
3863,-180.00
3864,-160.00
3865,-160.00
3866,-140.00
3867,-140.00
3868,-160.00
3869,-140.00
3870,-120.00
3871,-120.00
3872,-120.00
3873,-120.00
3874,-120.00
3875,-120.00
3876,-120.00
3877,-120.00
3878,-120.00
3879,-120.00
3880,-120.00
3881,-100.00
3882,-120.00
3883,-100.00
3884,-100.00
3885,-120.00
3886,-120.00
3887,-120.00
3888,-100.00
3889,-80.00
3890,-120.00
3891,-80.00
3892,-100.00
3893,-100.00
3894,-80.00
3895,-60.00
3896,-80.00
3897,-100.00
3898,-80.00
3899,-100.00
3900,-80.00
3901,-80.00
3902,-80.00
3903,-60.00
3904,-60.00
3905,-60.00
3906,-80.00
3907,-60.00
3908,-60.00
3909,-60.00
3910,-60.00
3911,-80.00
3912,-60.00
3913,-60.00
3914,-60.00
3915,-60.00
3916,-60.00
3917,-60.00
3918,-60.00
3919,-60.00
3920,-60.00
3921,-40.00
3922,-40.00
3923,-60.00
3924,-60.00
3925,-60.00
3926,-40.00
3927,-60.00
3928,-40.00
3929,-40.00
3930,-40.00
3931,-40.00
3932,-40.00
3933,-40.00
3934,-40.00
3935,-40.00
3936,-20.00
3937,-40.00
3938,-20.00
3939,-40.00
3940,-20.00
3941,-40.00
3942,-20.00
3943,-20.00
3944,-20.00
3945,-40.00
3946,-20.00
3947,-20.00
3948,-20.00
3949,-20.00
3950,-20.00
3951,0.00
3952,-20.00
3953,-20.00
3954,0.00
3955,0.00
3956,20.00
3957,20.00
3958,0.00
3959,-20.00
3960,0.00
3961,20.00
3962,20.00
3963,20.00
3964,20.00
3965,20.00
3966,20.00
3967,20.00
3968,20.00
3969,40.00
3970,20.00
3971,20.00
3972,20.00
3973,40.00
3974,20.00
3975,40.00
3976,20.00
3977,40.00
3978,40.00
3979,40.00
3980,60.00
3981,60.00
3982,20.00
3983,40.00
3984,40.00
3985,60.00
3986,60.00
3987,60.00
3988,60.00
3989,60.00
3990,80.00
3991,60.00
3992,80.00
3993,80.00
3994,60.00
3995,60.00
3996,60.00
3997,60.00
3998,60.00
3999,80.00
4000,100.00
4001,100.00
4002,80.00
4003,120.00
4004,100.00
4005,100.00
4006,80.00
4007,100.00
4008,80.00
4009,100.00
4010,120.00
4011,100.00
4012,100.00
4013,120.00
4014,100.00
4015,100.00
4016,120.00
4017,100.00
4018,100.00
4019,120.00
4020,120.00
4021,100.00
4022,120.00
4023,120.00
4024,120.00
4025,120.00
4026,120.00
4027,120.00
4028,120.00
4029,120.00
4030,120.00
4031,120.00
4032,120.00
4033,120.00
4034,120.00
4035,120.00
4036,120.00
4037,120.00
4038,120.00
4039,140.00
4040,140.00
4041,140.00
4042,120.00
4043,140.00
4044,120.00
4045,140.00
4046,120.00
4047,120.00
4048,140.00
4049,140.00
4050,140.00
4051,160.00
4052,140.00
4053,140.00
4054,120.00
4055,160.00
4056,160.00
4057,160.00
4058,160.00
4059,160.00
4060,160.00
4061,180.00
4062,160.00
4063,160.00
4064,160.00
4065,160.00
4066,160.00
4067,160.00
4068,160.00
4069,160.00
4070,160.00
4071,180.00
4072,200.00
4073,200.00
4074,180.00
4075,200.00
4076,200.00
4077,180.00
4078,200.00
4079,180.00
4080,200.00
4081,200.00
4082,220.00
4083,200.00
4084,220.00
4085,200.00
4086,220.00
4087,220.00
4088,200.00
4089,220.00
4090,180.00
4091,200.00
4092,220.00
4093,220.00
4094,220.00
4095,240.00
4096,240.00
4097,240.00
4098,240.00
4099,260.00
4100,240.00
4101,240.00
4102,260.00
4103,240.00
4104,240.00
4105,260.00
4106,260.00
4107,260.00
4108,260.00
4109,280.00
4110,280.00
4111,260.00
4112,280.00
4113,260.00
4114,240.00
4115,240.00
4116,260.00
4117,260.00
4118,280.00
4119,280.00
4120,280.00
4121,260.00
4122,280.00
4123,280.00
4124,280.00
4125,280.00
4126,260.00
4127,280.00
4128,280.00
4129,280.00
4130,280.00
4131,260.00
4132,280.00
4133,280.00
4134,280.00
4135,280.00
4136,280.00
4137,280.00
4138,280.00
4139,300.00
4140,300.00
4141,280.00
4142,320.00
4143,280.00
4144,280.00
4145,280.00
4146,300.00
4147,300.00
4148,300.00
4149,300.00
4150,300.00
4151,320.00
4152,320.00
4153,320.00
4154,320.00
4155,320.00
4156,320.00
4157,320.00
4158,320.00
4159,320.00
4160,320.00
4161,320.00
4162,320.00
4163,320.00
4164,320.00
4165,320.00
4166,340.00
4167,320.00
4168,320.00
4169,320.00
4170,340.00
4171,340.00
4172,320.00
4173,320.00
4174,320.00
4175,320.00
4176,320.00
4177,320.00
4178,340.00
4179,340.00
4180,360.00
4181,340.00
4182,360.00
4183,360.00
4184,360.00
4185,360.00
4186,340.00
4187,340.00
4188,360.00
4189,340.00
4190,360.00
4191,360.00
4192,360.00
4193,360.00
4194,380.00
4195,360.00
4196,360.00
4197,360.00
4198,340.00
4199,360.00
4200,380.00
4201,380.00
4202,380.00
4203,360.00
4204,380.00
4205,380.00
4206,380.00
4207,380.00
4208,380.00
4209,380.00
4210,380.00
4211,400.00
4212,380.00
4213,400.00
4214,400.00
4215,400.00
4216,400.00
4217,400.00
4218,380.00
4219,400.00
4220,400.00
4221,380.00
4222,400.00
4223,400.00
4224,420.00
4225,420.00
4226,400.00
4227,420.00
4228,420.00
4229,420.00
4230,400.00
4231,400.00
4232,400.00
4233,400.00
4234,420.00
4235,420.00
4236,420.00
4237,440.00
4238,400.00
4239,420.00
4240,420.00
4241,420.00
4242,420.00
4243,420.00
4244,400.00
4245,420.00
4246,440.00
4247,440.00
4248,420.00
4249,440.00
4250,460.00
4251,440.00
4252,460.00
4253,440.00
4254,440.00
4255,460.00
4256,400.00
4257,440.00
4258,440.00
4259,440.00
4260,460.00
4261,460.00
4262,460.00
4263,460.00
4264,460.00
4265,440.00
4266,460.00
4267,460.00
4268,440.00
4269,460.00
4270,460.00
4271,460.00
4272,460.00
4273,460.00
4274,460.00
4275,480.00
4276,500.00
4277,460.00
4278,460.00
4279,480.00
4280,460.00
4281,460.00
4282,480.00
4283,500.00
4284,500.00
4285,480.00
4286,480.00
4287,480.00
4288,500.00
4289,480.00
4290,480.00
4291,460.00
4292,480.00
4293,480.00
4294,500.00
4295,500.00
4296,500.00
4297,480.00
4298,500.00
4299,500.00
4300,500.00
4301,500.00
4302,500.00
4303,500.00
4304,500.00
4305,500.00
4306,500.00
4307,500.00
4308,500.00
4309,500.00
4310,500.00
4311,500.00
4312,500.00
4313,500.00
4314,500.00
4315,500.00
4316,500.00
4317,480.00
4318,500.00
4319,500.00
4320,500.00
4321,500.00
4322,500.00
4323,520.00
4324,500.00
4325,500.00
4326,500.00
4327,500.00
4328,500.00
4329,500.00
4330,520.00
4331,520.00
4332,500.00
4333,500.00
4334,520.00
4335,520.00
4336,520.00
4337,500.00
4338,500.00
4339,500.00
4340,500.00
4341,520.00
4342,520.00
4343,520.00
4344,520.00
4345,520.00
4346,520.00
4347,520.00
4348,520.00
4349,520.00
4350,520.00
4351,520.00
4352,520.00
4353,520.00
4354,520.00
4355,540.00
4356,540.00
4357,540.00
4358,520.00
4359,540.00
4360,540.00
4361,540.00
4362,540.00
4363,520.00
4364,520.00
4365,540.00
4366,540.00
4367,540.00
4368,540.00
4369,540.00
4370,540.00
4371,540.00
4372,540.00
4373,540.00
4374,540.00
4375,540.00
4376,540.00
4377,560.00
4378,540.00
4379,540.00
4380,560.00
4381,540.00
4382,540.00
4383,560.00
4384,540.00
4385,540.00
4386,540.00
4387,540.00
4388,540.00
4389,540.00
4390,560.00
4391,560.00
4392,560.00
4393,560.00
4394,560.00
4395,540.00
4396,560.00
4397,560.00
4398,560.00
4399,540.00
4400,540.00
4401,560.00
4402,560.00
4403,560.00
4404,560.00
4405,560.00
4406,560.00
4407,580.00
4408,560.00
4409,560.00
4410,560.00
4411,560.00
4412,560.00
4413,560.00
4414,560.00
4415,560.00
4416,560.00
4417,560.00
4418,580.00
4419,580.00
4420,560.00
4421,560.00
4422,560.00
4423,560.00
4424,560.00
4425,560.00
4426,580.00
4427,580.00
4428,580.00
4429,580.00
4430,580.00
4431,580.00
4432,580.00
4433,580.00
4434,560.00
4435,580.00
4436,580.00
4437,600.00
4438,560.00
4439,580.00
4440,600.00
4441,600.00
4442,600.00
4443,600.00
4444,560.00
4445,560.00
4446,580.00
4447,580.00
4448,580.00
4449,580.00
4450,580.00
4451,600.00
4452,600.00
4453,600.00
4454,600.00
4455,600.00
4456,600.00
4457,580.00
4458,580.00
4459,580.00
4460,580.00
4461,600.00
4462,600.00
4463,600.00
4464,600.00
4465,600.00
4466,600.00
4467,600.00
4468,600.00
4469,580.00
4470,600.00
4471,600.00
4472,600.00
4473,600.00
4474,600.00
4475,600.00
4476,600.00
4477,600.00
4478,600.00
4479,600.00
4480,600.00
4481,600.00
4482,600.00
4483,600.00
4484,600.00
4485,600.00
4486,600.00
4487,580.00
4488,600.00
4489,600.00
4490,600.00
4491,600.00
4492,600.00
4493,600.00
4494,600.00
4495,600.00
4496,600.00
4497,600.00
4498,600.00
4499,600.00
4500,600.00
4501,600.00
4502,600.00
4503,600.00
4504,600.00
4505,600.00
4506,600.00
4507,600.00
4508,600.00
4509,600.00
4510,600.00
4511,600.00
4512,600.00
4513,620.00
4514,600.00
4515,600.00
4516,600.00
4517,600.00
4518,600.00
4519,600.00
4520,600.00
4521,620.00
4522,600.00
4523,600.00
4524,620.00
4525,620.00
4526,600.00
4527,600.00
4528,620.00
4529,600.00
4530,620.00
4531,600.00
4532,600.00
4533,600.00
4534,620.00
4535,600.00
4536,600.00
4537,600.00
4538,620.00
4539,600.00
4540,600.00
4541,600.00
4542,600.00
4543,600.00
4544,600.00
4545,600.00
4546,600.00
4547,620.00
4548,600.00
4549,600.00
4550,600.00
4551,620.00
4552,600.00
4553,600.00
4554,600.00
4555,600.00
4556,600.00
4557,600.00
4558,620.00
4559,600.00
4560,600.00
4561,620.00
4562,620.00
4563,600.00
4564,600.00
4565,600.00
4566,600.00
4567,600.00
4568,620.00
4569,600.00
4570,600.00
4571,620.00
4572,620.00
4573,620.00
4574,600.00
4575,620.00
4576,600.00
4577,620.00
4578,600.00
4579,620.00
4580,600.00
4581,620.00
4582,620.00
4583,600.00
4584,600.00
4585,620.00
4586,620.00
4587,620.00
4588,600.00
4589,600.00
4590,600.00
4591,600.00
4592,620.00
4593,600.00
4594,600.00
4595,620.00
4596,620.00
4597,600.00
4598,620.00
4599,620.00
4600,600.00
4601,600.00
4602,600.00
4603,600.00
4604,600.00
4605,600.00
4606,600.00
4607,620.00
4608,600.00
4609,600.00
4610,600.00
4611,600.00
4612,620.00
4613,600.00
4614,600.00
4615,600.00
4616,600.00
4617,600.00
4618,620.00
4619,600.00
4620,600.00
4621,600.00
4622,600.00
4623,620.00
4624,600.00
4625,600.00
4626,600.00
4627,600.00
4628,600.00
4629,600.00
4630,600.00
4631,600.00
4632,600.00
4633,600.00
4634,600.00
4635,600.00
4636,600.00
4637,600.00
4638,600.00
4639,600.00
4640,600.00
4641,600.00
4642,600.00
4643,600.00
4644,600.00
4645,600.00
4646,600.00
4647,600.00
4648,600.00
4649,600.00
4650,600.00
4651,600.00
4652,600.00
4653,600.00
4654,600.00
4655,600.00
4656,600.00
4657,600.00
4658,600.00
4659,600.00
4660,600.00
4661,600.00
4662,600.00
4663,580.00
4664,600.00
4665,580.00
4666,580.00
4667,600.00
4668,600.00
4669,600.00
4670,600.00
4671,600.00
4672,580.00
4673,600.00
4674,600.00
4675,600.00
4676,580.00
4677,580.00
4678,560.00
4679,580.00
4680,580.00
4681,580.00
4682,600.00
4683,580.00
4684,580.00
4685,560.00
4686,560.00
4687,560.00
4688,580.00
4689,580.00
4690,560.00
4691,560.00
4692,560.00
4693,560.00
4694,560.00
4695,560.00
4696,560.00
4697,560.00
4698,580.00
4699,560.00
4700,560.00
4701,560.00
4702,560.00
4703,560.00
4704,560.00
4705,540.00
4706,560.00
4707,560.00
4708,560.00
4709,560.00
4710,560.00
4711,560.00
4712,560.00
4713,560.00
4714,540.00
4715,560.00
4716,560.00
4717,560.00
4718,560.00
4719,560.00
4720,560.00
4721,560.00
4722,560.00
4723,540.00
4724,560.00
4725,540.00
4726,560.00
4727,540.00
4728,540.00
4729,560.00
4730,540.00
4731,560.00
4732,540.00
4733,560.00
4734,560.00
4735,540.00
4736,540.00
4737,540.00
4738,560.00
4739,540.00
4740,540.00
4741,540.00
4742,540.00
4743,540.00
4744,540.00
4745,540.00
4746,540.00
4747,540.00
4748,520.00
4749,540.00
4750,520.00
4751,520.00
4752,540.00
4753,540.00
4754,520.00
4755,540.00
4756,540.00
4757,540.00
4758,540.00
4759,540.00
4760,520.00
4761,520.00
4762,520.00
4763,520.00
4764,540.00
4765,540.00
4766,520.00
4767,540.00
4768,540.00
4769,540.00
4770,540.00
4771,520.00
4772,520.00
4773,520.00
4774,520.00
4775,520.00
4776,520.00
4777,520.00
4778,520.00
4779,520.00
4780,520.00
4781,520.00
4782,520.00
4783,500.00
4784,500.00
4785,500.00
4786,500.00
4787,500.00
4788,500.00
4789,500.00
4790,500.00
4791,500.00
4792,520.00
4793,500.00
4794,500.00
4795,500.00
4796,500.00
4797,500.00
4798,500.00
4799,500.00
4800,500.00
4801,500.00
4802,500.00
4803,500.00
4804,500.00
4805,500.00
4806,500.00
4807,480.00
4808,500.00
4809,500.00
4810,500.00
4811,500.00
4812,500.00
4813,500.00
4814,500.00
4815,500.00
4816,500.00
4817,480.00
4818,480.00
4819,480.00
4820,480.00
4821,480.00
4822,480.00
4823,460.00
4824,480.00
4825,480.00
4826,480.00
4827,480.00
4828,480.00
4829,460.00
4830,460.00
4831,460.00
4832,460.00
4833,460.00
4834,480.00
4835,460.00
4836,460.00
4837,460.00
4838,460.00
4839,480.00
4840,460.00
4841,440.00
4842,460.00
4843,460.00
4844,440.00
4845,440.00
4846,460.00
4847,460.00
4848,460.00
4849,460.00
4850,440.00
4851,440.00
4852,440.00
4853,460.00
4854,460.00
4855,420.00
4856,420.00
4857,440.00
4858,440.00
4859,440.00
4860,440.00
4861,420.00
4862,420.00
4863,460.00
4864,420.00
4865,420.00
4866,420.00
4867,420.00
4868,420.00
4869,420.00
4870,420.00
4871,440.00
4872,440.00
4873,420.00
4874,440.00
4875,420.00
4876,420.00
4877,420.00
4878,420.00
4879,400.00
4880,420.00
4881,400.00
4882,420.00
4883,400.00
4884,400.00
4885,420.00
4886,420.00
4887,400.00
4888,420.00
4889,400.00
4890,400.00
4891,400.00
4892,400.00
4893,400.00
4894,400.00
4895,400.00
4896,380.00
4897,400.00
4898,380.00
4899,400.00
4900,400.00
4901,380.00
4902,380.00
4903,380.00
4904,400.00
4905,380.00
4906,380.00
4907,380.00
4908,380.00
4909,380.00
4910,380.00
4911,380.00
4912,380.00
4913,380.00
4914,380.00
4915,360.00
4916,360.00
4917,380.00
4918,360.00
4919,360.00
4920,360.00
4921,360.00
4922,380.00
4923,380.00
4924,360.00
4925,360.00
4926,360.00
4927,340.00
4928,340.00
4929,340.00
4930,340.00
4931,340.00
4932,340.00
4933,340.00
4934,340.00
4935,340.00
4936,340.00
4937,340.00
4938,340.00
4939,320.00
4940,320.00
4941,320.00
4942,320.00
4943,320.00
4944,320.00
4945,320.00
4946,320.00
4947,320.00
4948,320.00
4949,320.00
4950,320.00
4951,320.00
4952,320.00
4953,320.00
4954,320.00
4955,320.00
4956,320.00
4957,320.00
4958,320.00
4959,320.00
4960,320.00
4961,320.00
4962,320.00
4963,320.00
4964,320.00
4965,320.00
4966,300.00
4967,300.00
4968,300.00
4969,320.00
4970,320.00
4971,320.00
4972,300.00
4973,280.00
4974,280.00
4975,280.00
4976,280.00
4977,280.00
4978,300.00
4979,300.00
4980,280.00
4981,280.00
4982,280.00
4983,280.00
4984,300.00
4985,260.00
4986,280.00
4987,280.00
4988,280.00
4989,280.00
4990,280.00
4991,280.00
4992,280.00
4993,280.00
4994,280.00
4995,280.00
4996,280.00
4997,260.00
4998,260.00
4999,280.00
5000,260.00
5001,260.00
5002,280.00
5003,260.00
5004,260.00
5005,280.00
5006,260.00
5007,260.00
5008,260.00
5009,280.00
5010,240.00
5011,240.00
5012,260.00
5013,240.00
5014,260.00
5015,240.00
5016,240.00
5017,240.00
5018,240.00
5019,240.00
5020,240.00
5021,240.00
5022,240.00
5023,220.00
5024,200.00
5025,220.00
5026,220.00
5027,200.00
5028,220.00
5029,240.00
5030,220.00
5031,220.00
5032,200.00
5033,240.00
5034,200.00
5035,200.00
5036,200.00
5037,200.00
5038,200.00
5039,200.00
5040,200.00
5041,200.00
5042,200.00
5043,180.00
5044,200.00
5045,180.00
5046,180.00
5047,160.00
5048,160.00
5049,160.00
5050,160.00
5051,160.00
5052,160.00
5053,160.00
5054,160.00
5055,160.00
5056,160.00
5057,160.00
5058,160.00
5059,140.00
5060,160.00
5061,140.00
5062,160.00
5063,160.00
5064,140.00
5065,160.00
5066,160.00
5067,160.00
5068,140.00
5069,120.00
5070,120.00
5071,120.00
5072,120.00
5073,120.00
5074,160.00
5075,140.00
5076,140.00
5077,120.00
5078,120.00
5079,140.00
5080,120.00
5081,120.00
5082,120.00
5083,120.00
5084,120.00
5085,120.00
5086,120.00
5087,120.00
5088,120.00
5089,120.00
5090,120.00
5091,120.00
5092,120.00
5093,120.00
5094,120.00
5095,120.00
5096,120.00
5097,120.00
5098,120.00
5099,120.00
5100,120.00
5101,120.00
5102,120.00
5103,120.00
5104,120.00
5105,100.00
5106,100.00
5107,100.00
5108,100.00
5109,100.00
5110,100.00
5111,100.00
5112,100.00
5113,100.00
5114,100.00
5115,100.00
5116,100.00
5117,100.00
5118,80.00
5119,80.00
5120,80.00
5121,80.00
5122,60.00
5123,60.00
5124,80.00
5125,80.00
5126,60.00
5127,60.00
5128,60.00
5129,80.00
5130,60.00
5131,60.00
5132,40.00
5133,60.00
5134,60.00
5135,60.00
5136,40.00
5137,60.00
5138,60.00
5139,60.00
5140,40.00
5141,40.00
5142,20.00
5143,40.00
5144,20.00
5145,20.00
5146,20.00
5147,20.00
5148,20.00
5149,40.00
5150,20.00
5151,40.00
5152,20.00
5153,20.00
5154,20.00
5155,20.00
5156,20.00
5157,20.00
5158,0.00
5159,20.00
5160,20.00
5161,20.00
5162,0.00
5163,0.00
5164,-20.00
5165,-20.00
5166,0.00
5167,-20.00
5168,0.00
5169,-20.00
5170,-20.00
5171,-20.00
5172,-20.00
5173,-20.00
5174,-20.00
5175,-20.00
5176,-20.00
5177,-20.00
5178,-20.00
5179,-40.00
5180,-40.00
5181,-40.00
5182,-40.00
5183,-20.00
5184,-40.00
5185,-40.00
5186,-40.00
5187,-40.00
5188,-40.00
5189,-40.00
5190,-40.00
5191,-40.00
5192,-40.00
5193,-60.00
5194,-60.00
5195,-60.00
5196,-60.00
5197,-60.00
5198,-60.00
5199,-60.00
5200,-60.00
5201,-60.00
5202,-60.00
5203,-60.00
5204,-60.00
5205,-60.00
5206,-60.00
5207,-80.00
5208,-60.00
5209,-60.00
5210,-60.00
5211,-60.00
5212,-60.00
5213,-60.00
5214,-60.00
5215,-100.00
5216,-100.00
5217,-100.00
5218,-100.00
5219,-80.00
5220,-100.00
5221,-80.00
5222,-120.00
5223,-100.00
5224,-80.00
5225,-80.00
5226,-100.00
5227,-120.00
5228,-120.00
5229,-120.00
5230,-100.00
5231,-120.00
5232,-120.00
5233,-120.00
5234,-120.00
5235,-100.00
5236,-120.00
5237,-100.00
5238,-120.00
5239,-120.00
5240,-120.00
5241,-120.00
5242,-120.00
5243,-120.00
5244,-140.00
5245,-140.00
5246,-120.00
5247,-140.00
5248,-120.00
5249,-120.00
5250,-140.00
5251,-160.00
5252,-160.00
5253,-140.00
5254,-140.00
5255,-140.00
5256,-140.00
5257,-160.00
5258,-140.00
5259,-160.00
5260,-140.00
5261,-160.00
5262,-160.00
5263,-160.00
5264,-160.00
5265,-160.00
5266,-160.00
5267,-160.00
5268,-160.00
5269,-180.00
5270,-180.00
5271,-180.00
5272,-160.00
5273,-160.00
5274,-160.00
5275,-180.00
5276,-180.00
5277,-180.00
5278,-180.00
5279,-160.00
5280,-180.00
5281,-180.00
5282,-180.00
5283,-180.00
5284,-180.00
5285,-200.00
5286,-200.00
5287,-180.00
5288,-200.00
5289,-200.00
5290,-200.00
5291,-200.00
5292,-200.00
5293,-200.00
5294,-200.00
5295,-200.00
5296,-200.00
5297,-200.00
5298,-220.00
5299,-220.00
5300,-220.00
5301,-220.00
5302,-220.00
5303,-220.00
5304,-220.00
5305,-220.00
5306,-220.00
5307,-240.00
5308,-240.00
5309,-220.00
5310,-220.00
5311,-240.00
5312,-240.00
5313,-240.00
5314,-240.00
5315,-240.00
5316,-240.00
5317,-240.00
5318,-240.00
5319,-240.00
5320,-240.00
5321,-240.00
5322,-260.00
5323,-260.00
5324,-260.00
5325,-260.00
5326,-260.00
5327,-260.00
5328,-260.00
5329,-260.00
5330,-260.00
5331,-260.00
5332,-260.00
5333,-260.00
5334,-260.00
5335,-260.00
5336,-260.00
5337,-260.00
5338,-260.00
5339,-260.00
5340,-260.00
5341,-260.00
5342,-260.00
5343,-260.00
5344,-260.00
5345,-260.00
5346,-260.00
5347,-280.00
5348,-280.00
5349,-280.00
5350,-280.00
5351,-280.00
5352,-300.00
5353,-280.00
5354,-280.00
5355,-320.00
5356,-300.00
5357,-300.00
5358,-300.00
5359,-300.00
5360,-300.00
5361,-300.00
5362,-300.00
5363,-300.00
5364,-300.00
5365,-300.00
5366,-280.00
5367,-300.00
5368,-300.00
5369,-300.00
5370,-300.00
5371,-320.00
5372,-300.00
5373,-320.00
5374,-320.00
5375,-300.00
5376,-300.00
5377,-300.00
5378,-320.00
5379,-300.00
5380,-320.00
5381,-320.00
5382,-320.00
5383,-320.00
5384,-320.00
5385,-340.00
5386,-320.00
5387,-320.00
5388,-320.00
5389,-320.00
5390,-320.00
5391,-320.00
5392,-320.00
5393,-360.00
5394,-340.00
5395,-340.00
5396,-340.00
5397,-340.00
5398,-340.00
5399,-360.00
5400,-320.00
5401,-340.00
5402,-360.00
5403,-360.00
5404,-340.00
5405,-380.00
5406,-380.00
5407,-360.00
5408,-360.00
5409,-360.00
5410,-360.00
5411,-380.00
5412,-360.00
5413,-360.00
5414,-380.00
5415,-400.00
5416,-380.00
5417,-400.00
5418,-380.00
5419,-400.00
5420,-380.00
5421,-380.00
5422,-380.00
5423,-400.00
5424,-380.00
5425,-380.00
5426,-400.00
5427,-420.00
5428,-420.00
5429,-420.00
5430,-420.00
5431,-420.00
5432,-400.00
5433,-400.00
5434,-420.00
5435,-400.00
5436,-420.00
5437,-420.00
5438,-420.00
5439,-420.00
5440,-420.00
5441,-420.00
5442,-420.00
5443,-420.00
5444,-420.00
5445,-420.00
5446,-420.00
5447,-420.00
5448,-420.00
5449,-440.00
5450,-420.00
5451,-420.00
5452,-420.00
5453,-440.00
5454,-440.00
5455,-440.00
5456,-460.00
5457,-440.00
5458,-440.00
5459,-460.00
5460,-440.00
5461,-440.00
5462,-440.00
5463,-440.00
5464,-440.00
5465,-460.00
5466,-440.00
5467,-460.00
5468,-460.00
5469,-440.00
5470,-440.00
5471,-460.00
5472,-440.00
5473,-440.00
5474,-440.00
5475,-440.00
5476,-440.00
5477,-440.00
5478,-440.00
5479,-440.00
5480,-440.00
5481,-460.00
5482,-460.00
5483,-440.00
5484,-460.00
5485,-440.00
5486,-440.00
5487,-460.00
5488,-460.00
5489,-460.00
5490,-440.00
5491,-460.00
5492,-460.00
5493,-460.00
5494,-460.00
5495,-460.00
5496,-460.00
5497,-480.00
5498,-460.00
5499,-460.00
5500,-460.00
5501,-480.00
5502,-480.00
5503,-480.00
5504,-480.00
5505,-480.00
5506,-480.00
5507,-480.00
5508,-480.00
5509,-480.00
5510,-480.00
5511,-480.00
5512,-480.00
5513,-480.00
5514,-500.00
5515,-500.00
5516,-480.00
5517,-480.00
5518,-480.00
5519,-480.00
5520,-480.00
5521,-500.00
5522,-480.00
5523,-500.00
5524,-500.00
5525,-500.00
5526,-500.00
5527,-520.00
5528,-500.00
5529,-500.00
5530,-500.00
5531,-500.00
5532,-500.00
5533,-520.00
5534,-500.00
5535,-500.00
5536,-500.00
5537,-520.00
5538,-520.00
5539,-520.00
5540,-520.00
5541,-520.00
5542,-520.00
5543,-500.00
5544,-520.00
5545,-520.00
5546,-520.00
5547,-520.00
5548,-540.00
5549,-520.00
5550,-520.00
5551,-520.00
5552,-520.00
5553,-520.00
5554,-520.00
5555,-520.00
5556,-520.00
5557,-520.00
5558,-520.00
5559,-560.00
5560,-540.00
5561,-540.00
5562,-540.00
5563,-540.00
5564,-560.00
5565,-560.00
5566,-540.00
5567,-560.00
5568,-540.00
5569,-520.00
5570,-540.00
5571,-560.00
5572,-560.00
5573,-560.00
5574,-560.00
5575,-560.00
5576,-560.00
5577,-540.00
5578,-560.00
5579,-540.00
5580,-560.00
5581,-560.00
5582,-540.00
5583,-560.00
5584,-560.00
5585,-560.00
5586,-580.00
5587,-560.00
5588,-560.00
5589,-560.00
5590,-560.00
5591,-560.00
5592,-560.00
5593,-540.00
5594,-540.00
5595,-560.00
5596,-560.00
5597,-560.00
5598,-560.00
5599,-560.00
5600,-560.00
5601,-560.00
5602,-560.00
5603,-560.00
5604,-580.00
5605,-560.00
5606,-560.00
5607,-600.00
5608,-560.00
5609,-600.00
5610,-580.00
5611,-560.00
5612,-580.00
5613,-560.00
5614,-580.00
5615,-580.00
5616,-600.00
5617,-560.00
5618,-580.00
5619,-580.00
5620,-600.00
5621,-600.00
5622,-620.00
5623,-620.00
5624,-600.00
5625,-600.00
5626,-580.00
5627,-600.00
5628,-600.00
5629,-620.00
5630,-620.00
5631,-600.00
5632,-580.00
5633,-580.00
5634,-620.00
5635,-600.00
5636,-600.00
5637,-600.00
5638,-580.00
5639,-580.00
5640,-600.00
5641,-620.00
5642,-600.00
5643,-600.00
5644,-600.00
5645,-620.00
5646,-600.00
5647,-620.00
5648,-600.00
5649,-600.00
5650,-600.00
5651,-600.00
5652,-600.00
5653,-620.00
5654,-620.00
5655,-600.00
5656,-620.00
5657,-600.00
5658,-600.00
5659,-620.00
5660,-600.00
5661,-600.00
5662,-620.00
5663,-620.00
5664,-600.00
5665,-620.00
5666,-620.00
5667,-600.00
5668,-620.00
5669,-620.00
5670,-620.00
5671,-620.00
5672,-620.00
5673,-640.00
5674,-600.00
5675,-620.00
5676,-620.00
5677,-600.00
5678,-620.00
5679,-620.00
5680,-640.00
5681,-620.00
5682,-640.00
5683,-620.00
5684,-620.00
5685,-620.00
5686,-640.00
5687,-620.00
5688,-620.00
5689,-620.00
5690,-620.00
5691,-620.00
5692,-620.00
5693,-640.00
5694,-620.00
5695,-620.00
5696,-640.00
5697,-640.00
5698,-640.00
5699,-620.00
5700,-620.00
5701,-620.00
5702,-620.00
5703,-620.00
5704,-640.00
5705,-640.00
5706,-640.00
5707,-640.00
5708,-620.00
5709,-640.00
5710,-640.00
5711,-620.00
5712,-640.00
5713,-620.00
5714,-620.00
5715,-640.00
5716,-640.00
5717,-620.00
5718,-620.00
5719,-640.00
5720,-640.00
5721,-620.00
5722,-640.00
5723,-640.00
5724,-640.00
5725,-640.00
5726,-620.00
5727,-640.00
5728,-640.00
5729,-640.00
5730,-640.00
5731,-640.00
5732,-640.00
5733,-640.00
5734,-640.00
5735,-640.00
5736,-640.00
5737,-640.00
5738,-640.00
5739,-640.00
5740,-640.00
5741,-640.00
5742,-640.00
5743,-640.00
5744,-640.00
5745,-640.00
5746,-640.00
5747,-640.00
5748,-640.00
5749,-640.00
5750,-640.00
5751,-640.00
5752,-640.00
5753,-640.00
5754,-640.00
5755,-640.00
5756,-640.00
5757,-640.00
5758,-640.00
5759,-640.00
5760,-640.00
5761,-620.00
5762,-640.00
5763,-640.00
5764,-640.00
5765,-640.00
5766,-640.00
5767,-640.00
5768,-640.00
5769,-640.00
5770,-640.00
5771,-640.00
5772,-640.00
5773,-640.00
5774,-640.00
5775,-640.00
5776,-640.00
5777,-640.00
5778,-640.00
5779,-640.00
5780,-640.00
5781,-640.00
5782,-640.00
5783,-640.00
5784,-640.00
5785,-640.00
5786,-640.00
5787,-640.00
5788,-640.00
5789,-640.00
5790,-640.00
5791,-640.00
5792,-640.00
5793,-640.00
5794,-640.00
5795,-640.00
5796,-640.00
5797,-640.00
5798,-640.00
5799,-640.00
5800,-640.00
5801,-640.00
5802,-640.00
5803,-640.00
5804,-640.00
5805,-640.00
5806,-640.00
5807,-640.00
5808,-640.00
5809,-640.00
5810,-640.00
5811,-640.00
5812,-640.00
5813,-640.00
5814,-640.00
5815,-640.00
5816,-640.00
5817,-620.00
5818,-640.00
5819,-640.00
5820,-640.00
5821,-640.00
5822,-640.00
5823,-640.00
5824,-640.00
5825,-640.00
5826,-640.00
5827,-640.00
5828,-640.00
5829,-640.00
5830,-640.00
5831,-640.00
5832,-640.00
5833,-640.00
5834,-640.00
5835,-640.00
5836,-640.00
5837,-640.00
5838,-640.00
5839,-640.00
5840,-640.00
5841,-640.00
5842,-640.00
5843,-620.00
5844,-640.00
5845,-620.00
5846,-640.00
5847,-640.00
5848,-640.00
5849,-640.00
5850,-640.00
5851,-640.00
5852,-640.00
5853,-640.00
5854,-640.00
5855,-640.00
5856,-620.00
5857,-640.00
5858,-640.00
5859,-640.00
5860,-640.00
5861,-640.00
5862,-640.00
5863,-640.00
5864,-620.00
5865,-640.00
5866,-640.00
5867,-620.00
5868,-640.00
5869,-620.00
5870,-640.00
5871,-620.00
5872,-620.00
5873,-620.00
5874,-620.00
5875,-640.00
5876,-640.00
5877,-620.00
5878,-640.00
5879,-620.00
5880,-640.00
5881,-620.00
5882,-640.00
5883,-620.00
5884,-620.00
5885,-620.00
5886,-620.00
5887,-620.00
5888,-620.00
5889,-620.00
5890,-620.00
5891,-640.00
5892,-620.00
5893,-620.00
5894,-620.00
5895,-620.00
5896,-620.00
5897,-640.00
5898,-620.00
5899,-640.00
5900,-620.00
5901,-620.00
5902,-640.00
5903,-600.00
5904,-600.00
5905,-620.00
5906,-600.00
5907,-600.00
5908,-620.00
5909,-620.00
5910,-620.00
5911,-620.00
5912,-620.00
5913,-620.00
5914,-620.00
5915,-600.00
5916,-620.00
5917,-600.00
5918,-620.00
5919,-600.00
5920,-620.00
5921,-600.00
5922,-620.00
5923,-640.00
5924,-600.00
5925,-620.00
5926,-600.00
5927,-600.00
5928,-600.00
5929,-580.00
5930,-600.00
5931,-620.00
5932,-600.00
5933,-600.00
5934,-600.00
5935,-600.00
5936,-620.00
5937,-620.00
5938,-580.00
5939,-600.00
5940,-600.00
5941,-580.00
5942,-560.00
5943,-600.00
5944,-600.00
5945,-600.00
5946,-600.00
5947,-580.00
5948,-600.00
5949,-580.00
5950,-620.00
5951,-600.00
5952,-600.00
5953,-580.00
5954,-580.00
5955,-580.00
5956,-600.00
5957,-600.00
5958,-580.00
5959,-600.00
5960,-580.00
5961,-580.00
5962,-600.00
5963,-600.00
5964,-600.00
5965,-580.00
5966,-580.00
5967,-580.00
5968,-580.00
5969,-580.00
5970,-600.00
5971,-600.00
5972,-600.00
5973,-580.00
5974,-580.00
5975,-560.00
5976,-560.00
5977,-560.00
5978,-560.00
5979,-560.00
5980,-560.00
5981,-580.00
5982,-580.00
5983,-560.00
5984,-560.00
5985,-560.00
5986,-560.00
5987,-560.00
5988,-560.00
5989,-560.00
5990,-560.00
5991,-540.00
5992,-560.00
5993,-560.00
5994,-560.00
5995,-560.00
5996,-560.00
5997,-540.00
5998,-560.00
5999,-540.00
6000,-540.00
6001,-540.00
6002,-560.00
6003,-560.00
6004,-540.00
6005,-560.00
6006,-540.00
6007,-560.00
6008,-560.00
6009,-520.00
6010,-520.00
6011,-520.00
6012,-520.00
6013,-520.00
6014,-520.00
6015,-540.00
6016,-520.00
6017,-560.00
6018,-540.00
6019,-540.00
6020,-520.00
6021,-520.00
6022,-520.00
6023,-520.00
6024,-520.00
6025,-520.00
6026,-520.00
6027,-540.00
6028,-540.00
6029,-520.00
6030,-520.00
6031,-520.00
6032,-520.00
6033,-520.00
6034,-500.00
6035,-500.00
6036,-500.00
6037,-520.00
6038,-520.00
6039,-520.00
6040,-520.00
6041,-520.00
6042,-520.00
6043,-500.00
6044,-500.00
6045,-500.00
6046,-500.00
6047,-500.00
6048,-480.00
6049,-480.00
6050,-480.00
6051,-480.00
6052,-500.00
6053,-500.00
6054,-480.00
6055,-500.00
6056,-500.00
6057,-480.00
6058,-480.00
6059,-480.00
6060,-480.00
6061,-480.00
6062,-480.00
6063,-480.00
6064,-480.00
6065,-480.00
6066,-480.00
6067,-480.00
6068,-480.00
6069,-480.00
6070,-480.00
6071,-460.00
6072,-480.00
6073,-460.00
6074,-480.00
6075,-460.00
6076,-460.00
6077,-480.00
6078,-460.00
6079,-480.00
6080,-460.00
6081,-460.00
6082,-440.00
6083,-460.00
6084,-460.00
6085,-440.00
6086,-460.00
6087,-440.00
6088,-460.00
6089,-460.00
6090,-440.00
6091,-440.00
6092,-460.00
6093,-440.00
6094,-440.00
6095,-440.00
6096,-480.00
6097,-440.00
6098,-460.00
6099,-440.00
6100,-440.00
6101,-440.00
6102,-440.00
6103,-440.00
6104,-440.00
6105,-440.00
6106,-440.00
6107,-440.00
6108,-460.00
6109,-440.00
6110,-440.00
6111,-460.00
6112,-440.00
6113,-440.00
6114,-440.00
6115,-440.00
6116,-460.00
6117,-440.00
6118,-440.00
6119,-440.00
6120,-440.00
6121,-440.00
6122,-440.00
6123,-440.00
6124,-440.00
6125,-420.00
6126,-440.00
6127,-420.00
6128,-440.00
6129,-400.00
6130,-420.00
6131,-420.00
6132,-400.00
6133,-420.00
6134,-420.00
6135,-400.00
6136,-420.00
6137,-420.00
6138,-420.00
6139,-420.00
6140,-420.00
6141,-380.00
6142,-400.00
6143,-420.00
6144,-400.00
6145,-400.00
6146,-400.00
6147,-400.00
6148,-400.00
6149,-380.00
6150,-380.00
6151,-400.00
6152,-380.00
6153,-400.00
6154,-380.00
6155,-400.00
6156,-400.00
6157,-400.00
6158,-400.00
6159,-380.00
6160,-380.00
6161,-380.00
6162,-400.00
6163,-400.00
6164,-400.00
6165,-360.00
6166,-360.00
6167,-360.00
6168,-380.00
6169,-360.00
6170,-360.00
6171,-360.00
6172,-380.00
6173,-360.00
6174,-360.00
6175,-360.00
6176,-340.00
6177,-340.00
6178,-360.00
6179,-340.00
6180,-320.00
6181,-340.00
6182,-340.00
6183,-320.00
6184,-340.00
6185,-320.00
6186,-320.00
6187,-340.00
6188,-340.00
6189,-320.00
6190,-320.00
6191,-320.00
6192,-320.00
6193,-300.00
6194,-320.00
6195,-320.00
6196,-300.00
6197,-320.00
6198,-320.00
6199,-320.00
6200,-320.00
6201,-320.00
6202,-320.00
6203,-300.00
6204,-300.00
6205,-300.00
6206,-300.00
6207,-300.00
6208,-300.00
6209,-300.00
6210,-300.00
6211,-300.00
6212,-320.00
6213,-280.00
6214,-280.00
6215,-300.00
6216,-280.00
6217,-300.00
6218,-300.00
6219,-280.00
6220,-280.00
6221,-280.00
6222,-300.00
6223,-280.00
6224,-280.00
6225,-280.00
6226,-260.00
6227,-260.00
6228,-280.00
6229,-280.00
6230,-260.00
6231,-260.00
6232,-260.00
6233,-260.00
6234,-260.00
6235,-260.00
6236,-260.00
6237,-260.00
6238,-260.00
6239,-260.00
6240,-260.00
6241,-260.00
6242,-260.00
6243,-260.00
6244,-260.00
6245,-260.00
6246,-260.00
6247,-260.00
6248,-260.00
6249,-260.00
6250,-260.00
6251,-260.00
6252,-260.00
6253,-260.00
6254,-260.00
6255,-240.00
6256,-220.00
6257,-240.00
6258,-220.00
6259,-240.00
6260,-240.00
6261,-220.00
6262,-260.00
6263,-240.00
6264,-240.00
6265,-220.00
6266,-240.00
6267,-220.00
6268,-220.00
6269,-220.00
6270,-200.00
6271,-220.00
6272,-200.00
6273,-200.00
6274,-220.00
6275,-220.00
6276,-180.00
6277,-200.00
6278,-200.00
6279,-200.00
6280,-200.00
6281,-200.00
6282,-200.00
6283,-200.00
6284,-200.00
6285,-200.00
6286,-200.00
6287,-200.00
6288,-200.00
6289,-180.00
6290,-200.00
6291,-180.00
6292,-180.00
6293,-180.00
6294,-180.00
6295,-160.00
6296,-180.00
6297,-180.00
6298,-200.00
6299,-180.00
6300,-160.00
6301,-160.00
6302,-180.00
6303,-160.00
6304,-160.00
6305,-180.00
6306,-180.00
6307,-160.00
6308,-160.00
6309,-160.00
6310,-140.00
6311,-160.00
6312,-140.00
6313,-160.00
6314,-140.00
6315,-160.00
6316,-140.00
6317,-140.00
6318,-120.00
6319,-160.00
6320,-160.00
6321,-160.00
6322,-140.00
6323,-160.00
6324,-120.00
6325,-160.00
6326,-160.00
6327,-160.00
6328,-160.00
6329,-120.00
6330,-140.00
6331,-120.00
6332,-120.00
6333,-140.00
6334,-140.00
6335,-120.00
6336,-120.00
6337,-120.00
6338,-120.00
6339,-120.00
6340,-100.00
6341,-120.00
6342,-100.00
6343,-120.00
6344,-120.00
6345,-120.00
6346,-120.00
6347,-120.00
6348,-100.00
6349,-80.00
6350,-100.00
6351,-100.00
6352,-100.00
6353,-80.00
6354,-80.00
6355,-80.00
6356,-80.00
6357,-100.00
6358,-80.00
6359,-60.00
6360,-60.00
6361,-100.00
6362,-60.00
6363,-60.00
6364,-60.00
6365,-60.00
6366,-60.00
6367,-80.00
6368,-60.00
6369,-60.00
6370,-60.00
6371,-60.00
6372,-60.00
6373,-60.00
6374,-60.00
6375,-60.00
6376,-40.00
6377,-60.00
6378,-60.00
6379,-60.00
6380,-60.00
6381,-60.00
6382,-60.00
6383,-60.00
6384,-40.00
6385,-60.00
6386,-20.00
6387,-40.00
6388,-40.00
6389,-20.00
6390,-40.00
6391,-40.00
6392,-20.00
6393,-40.00
6394,-40.00
6395,-40.00
6396,-20.00
6397,-20.00
6398,-20.00
6399,-20.00
6400,-40.00
6401,-20.00
6402,0.00
6403,-20.00
6404,-20.00
6405,-20.00
6406,-20.00
6407,-20.00
6408,-20.00
6409,20.00
6410,0.00
6411,-20.00
6412,0.00
6413,20.00
6414,20.00
6415,20.00
6416,20.00
6417,20.00
6418,20.00
6419,20.00
6420,20.00
6421,40.00
6422,20.00
6423,40.00
6424,20.00
6425,20.00
6426,40.00
6427,20.00
6428,40.00
6429,20.00
6430,20.00
6431,40.00
6432,40.00
6433,40.00
6434,60.00
6435,40.00
6436,60.00
6437,60.00
6438,80.00
6439,40.00
6440,60.00
6441,60.00
6442,60.00
6443,40.00
6444,60.00
6445,80.00
6446,80.00
6447,80.00
6448,80.00
6449,80.00
6450,80.00
6451,60.00
6452,80.00
6453,80.00
6454,80.00
6455,80.00
6456,60.00
6457,80.00
6458,100.00
6459,100.00
6460,100.00
6461,100.00
6462,120.00
6463,100.00
6464,100.00
6465,80.00
6466,80.00
6467,100.00
6468,100.00
6469,100.00
6470,100.00
6471,120.00
6472,120.00
6473,120.00
6474,120.00
6475,120.00
6476,120.00
6477,100.00
6478,120.00
6479,120.00
6480,120.00
6481,120.00
6482,120.00
6483,120.00
6484,120.00
6485,120.00
6486,100.00
6487,120.00
6488,120.00
6489,120.00
6490,120.00
6491,140.00
6492,140.00
6493,120.00
6494,140.00
6495,120.00
6496,120.00
6497,140.00
6498,140.00
6499,120.00
6500,120.00
6501,120.00
6502,140.00
6503,120.00
6504,140.00
6505,140.00
6506,160.00
6507,120.00
6508,120.00
6509,140.00
6510,160.00
6511,160.00
6512,160.00
6513,160.00
6514,160.00
6515,160.00
6516,180.00
6517,160.00
6518,180.00
6519,160.00
6520,160.00
6521,180.00
6522,160.00
6523,160.00
6524,160.00
6525,160.00
6526,200.00
6527,160.00
6528,180.00
6529,180.00
6530,200.00
6531,180.00
6532,180.00
6533,180.00
6534,200.00
6535,200.00
6536,200.00
6537,160.00
6538,200.00
6539,200.00
6540,200.00
6541,200.00
6542,200.00
6543,220.00
6544,240.00
6545,220.00
6546,200.00
6547,220.00
6548,240.00
6549,200.00
6550,200.00
6551,220.00
6552,240.00
6553,240.00
6554,260.00
6555,260.00
6556,240.00
6557,260.00
6558,260.00
6559,260.00
6560,220.00
6561,240.00
6562,240.00
6563,240.00
6564,240.00
6565,260.00
6566,260.00
6567,260.00
6568,280.00
6569,280.00
6570,260.00
6571,260.00
6572,260.00
6573,280.00
6574,280.00
6575,280.00
6576,280.00
6577,280.00
6578,280.00
6579,280.00
6580,280.00
6581,280.00
6582,280.00
6583,280.00
6584,260.00
6585,280.00
6586,280.00
6587,280.00
6588,280.00
6589,300.00
6590,280.00
6591,300.00
6592,300.00
6593,280.00
6594,280.00
6595,300.00
6596,280.00
6597,300.00
6598,260.00
6599,280.00
6600,320.00
6601,300.00
6602,320.00
6603,320.00
6604,320.00
6605,300.00
6606,300.00
6607,300.00
6608,320.00
6609,320.00
6610,320.00
6611,320.00
6612,320.00
6613,320.00
6614,320.00
6615,320.00
6616,320.00
6617,320.00
6618,320.00
6619,320.00
6620,320.00
6621,340.00
6622,320.00
6623,320.00
6624,320.00
6625,340.00
6626,340.00
6627,320.00
6628,320.00
6629,340.00
6630,320.00
6631,320.00
6632,320.00
6633,320.00
6634,340.00
6635,340.00
6636,340.00
6637,320.00
6638,340.00
6639,360.00
6640,360.00
6641,340.00
6642,340.00
6643,340.00
6644,340.00
6645,360.00
6646,360.00
6647,360.00
6648,360.00
6649,360.00
6650,360.00
6651,380.00
6652,360.00
6653,360.00
6654,360.00
6655,360.00
6656,360.00
6657,360.00
6658,380.00
6659,380.00
6660,380.00
6661,380.00
6662,380.00
6663,380.00
6664,380.00
6665,380.00
6666,360.00
6667,360.00
6668,380.00
6669,380.00
6670,380.00
6671,380.00
6672,400.00
6673,420.00
6674,400.00
6675,400.00
6676,400.00
6677,400.00
6678,400.00
6679,380.00
6680,400.00
6681,400.00
6682,400.00
6683,420.00
6684,420.00
6685,420.00
6686,420.00
6687,420.00
6688,420.00
6689,400.00
6690,400.00
6691,420.00
6692,420.00
6693,440.00
6694,420.00
6695,420.00
6696,420.00
6697,440.00
6698,420.00
6699,420.00
6700,420.00
6701,420.00
6702,420.00
6703,420.00
6704,420.00
6705,420.00
6706,420.00
6707,460.00
6708,440.00
6709,420.00
6710,440.00
6711,440.00
6712,440.00
6713,440.00
6714,420.00
6715,460.00
6716,420.00
6717,440.00
6718,460.00
6719,460.00
6720,460.00
6721,460.00
6722,460.00
6723,460.00
6724,440.00
6725,460.00
6726,440.00
6727,440.00
6728,480.00
6729,460.00
6730,460.00
6731,480.00
6732,460.00
6733,480.00
6734,500.00
6735,480.00
6736,460.00
6737,460.00
6738,460.00
6739,440.00
6740,480.00
6741,480.00
6742,480.00
6743,480.00
6744,480.00
6745,500.00
6746,480.00
6747,480.00
6748,500.00
6749,460.00
6750,480.00
6751,480.00
6752,500.00
6753,500.00
6754,500.00
6755,500.00
6756,500.00
6757,500.00
6758,500.00
6759,500.00
6760,480.00
6761,480.00
6762,500.00
6763,500.00
6764,500.00
6765,500.00
6766,500.00
6767,500.00
6768,500.00
6769,500.00
6770,500.00
6771,500.00
6772,480.00
6773,500.00
6774,500.00
6775,500.00
6776,500.00
6777,500.00
6778,500.00
6779,500.00
6780,520.00
6781,500.00
6782,500.00
6783,500.00
6784,500.00
6785,500.00
6786,500.00
6787,500.00
6788,520.00
6789,520.00
6790,520.00
6791,520.00
6792,520.00
6793,520.00
6794,520.00
6795,520.00
6796,520.00
6797,520.00
6798,500.00
6799,520.00
6800,520.00
6801,520.00
6802,520.00
6803,520.00
6804,520.00
6805,540.00
6806,520.00
6807,520.00
6808,520.00
6809,520.00
6810,520.00
6811,520.00
6812,520.00
6813,540.00
6814,540.00
6815,540.00
6816,540.00
6817,540.00
6818,540.00
6819,520.00
6820,540.00
6821,520.00
6822,540.00
6823,520.00
6824,540.00
6825,560.00
6826,540.00
6827,540.00
6828,560.00
6829,560.00
6830,560.00
6831,560.00
6832,540.00
6833,560.00
6834,540.00
6835,540.00
6836,560.00
6837,560.00
6838,560.00
6839,560.00
6840,560.00
6841,560.00
6842,540.00
6843,560.00
6844,540.00
6845,560.00
6846,540.00
6847,540.00
6848,560.00
6849,560.00
6850,560.00
6851,560.00
6852,560.00
6853,560.00
6854,560.00
6855,560.00
6856,560.00
6857,540.00
6858,560.00
6859,560.00
6860,560.00
6861,540.00
6862,560.00
6863,560.00
6864,560.00
6865,560.00
6866,580.00
6867,540.00
6868,560.00
6869,560.00
6870,560.00
6871,560.00
6872,560.00
6873,580.00
6874,560.00
6875,580.00
6876,560.00
6877,560.00
6878,580.00
6879,560.00
6880,560.00
6881,580.00
6882,560.00
6883,560.00
6884,580.00
6885,560.00
6886,580.00
6887,560.00
6888,580.00
6889,580.00
6890,580.00
6891,560.00
6892,560.00
6893,580.00
6894,580.00
6895,560.00
6896,580.00
6897,580.00
6898,600.00
6899,580.00
6900,600.00
6901,580.00
6902,600.00
6903,580.00
6904,580.00
6905,580.00
6906,580.00
6907,600.00
6908,600.00
6909,600.00
6910,580.00
6911,600.00
6912,600.00
6913,600.00
6914,600.00
6915,600.00
6916,580.00
6917,580.00
6918,580.00
6919,600.00
6920,580.00
6921,600.00
6922,600.00
6923,600.00
6924,600.00
6925,600.00
6926,600.00
6927,580.00
6928,600.00
6929,580.00
6930,580.00
6931,600.00
6932,600.00
6933,600.00
6934,600.00
6935,600.00
6936,600.00
6937,600.00
6938,600.00
6939,580.00
6940,600.00
6941,600.00
6942,600.00
6943,600.00
6944,600.00
6945,600.00
6946,600.00
6947,600.00
6948,620.00
6949,600.00
6950,600.00
6951,600.00
6952,600.00
6953,600.00
6954,600.00
6955,620.00
6956,620.00
6957,600.00
6958,600.00
6959,600.00
6960,600.00
6961,620.00
6962,600.00
6963,600.00
6964,600.00
6965,600.00
6966,600.00
6967,600.00
6968,600.00
6969,620.00
6970,600.00
6971,600.00
6972,600.00
6973,600.00
6974,600.00
6975,600.00
6976,600.00
6977,620.00
6978,620.00
6979,600.00
6980,600.00
6981,600.00
6982,600.00
6983,600.00
6984,620.00
6985,600.00
6986,620.00
6987,600.00
6988,600.00
6989,600.00
6990,600.00
6991,620.00
6992,600.00
6993,620.00
6994,600.00
6995,620.00
6996,620.00
6997,640.00
6998,620.00
6999,620.00
7000,620.00
7001,620.00
7002,600.00
7003,620.00
7004,600.00
7005,620.00
7006,620.00
7007,600.00
7008,620.00
7009,620.00
7010,600.00
7011,620.00
7012,600.00
7013,600.00
7014,600.00
7015,620.00
7016,620.00
7017,600.00
7018,620.00
7019,600.00
7020,600.00
7021,620.00
7022,600.00
7023,600.00
7024,600.00
7025,600.00
7026,600.00
7027,600.00
7028,620.00
7029,600.00
7030,600.00
7031,640.00
7032,600.00
7033,620.00
7034,620.00
7035,600.00
7036,600.00
7037,620.00
7038,600.00
7039,620.00
7040,600.00
7041,600.00
7042,600.00
7043,600.00
7044,620.00
7045,620.00
7046,620.00
7047,620.00
7048,620.00
7049,600.00
7050,620.00
7051,600.00
7052,620.00
7053,620.00
7054,620.00
7055,620.00
7056,620.00
7057,600.00
7058,600.00
7059,600.00
7060,600.00
7061,600.00
7062,600.00
7063,600.00
7064,600.00
7065,600.00
7066,620.00
7067,600.00
7068,620.00
7069,620.00
7070,600.00
7071,600.00
7072,600.00
7073,600.00
7074,620.00
7075,600.00
7076,620.00
7077,600.00
7078,600.00
7079,600.00
7080,620.00
7081,620.00
7082,600.00
7083,600.00
7084,600.00
7085,600.00
7086,600.00
7087,600.00
7088,600.00
7089,600.00
7090,600.00
7091,600.00
7092,600.00
7093,600.00
7094,600.00
7095,600.00
7096,600.00
7097,600.00
7098,600.00
7099,600.00
7100,600.00
7101,600.00
7102,600.00
7103,600.00
7104,600.00
7105,600.00
7106,600.00
7107,600.00
7108,600.00
7109,580.00
7110,600.00
7111,600.00
7112,600.00
7113,600.00
7114,600.00
7115,600.00
7116,600.00
7117,600.00
7118,600.00
7119,580.00
7120,580.00
7121,580.00
7122,580.00
7123,560.00
7124,580.00
7125,600.00
7126,600.00
7127,600.00
7128,600.00
7129,600.00
7130,580.00
7131,580.00
7132,580.00
7133,560.00
7134,560.00
7135,580.00
7136,560.00
7137,580.00
7138,580.00
7139,580.00
7140,560.00
7141,600.00
7142,580.00
7143,560.00
7144,580.00
7145,560.00
7146,560.00
7147,580.00
7148,580.00
7149,580.00
7150,560.00
7151,580.00
7152,560.00
7153,560.00
7154,580.00
7155,560.00
7156,560.00
7157,560.00
7158,560.00
7159,560.00
7160,560.00
7161,580.00
7162,560.00
7163,560.00
7164,560.00
7165,560.00
7166,560.00
7167,540.00
7168,560.00
7169,560.00
7170,560.00
7171,540.00
7172,560.00
7173,560.00
7174,560.00
7175,560.00
7176,560.00
7177,560.00
7178,560.00
7179,540.00
7180,560.00
7181,540.00
7182,540.00
7183,540.00
7184,560.00
7185,560.00
7186,560.00
7187,560.00
7188,560.00
7189,540.00
7190,540.00
7191,540.00
7192,540.00
7193,540.00
7194,540.00
7195,540.00
7196,560.00
7197,540.00
7198,540.00
7199,540.00
7200,540.00
7201,560.00
7202,540.00
7203,540.00
7204,540.00
7205,520.00
7206,540.00
7207,540.00
7208,540.00
7209,540.00
7210,540.00
7211,540.00
7212,540.00
7213,540.00
7214,520.00
7215,520.00
7216,520.00
7217,520.00
7218,520.00
7219,520.00
7220,520.00
7221,520.00
7222,540.00
7223,520.00
7224,520.00
7225,520.00
7226,520.00
7227,500.00
7228,520.00
7229,500.00
7230,500.00
7231,520.00
7232,520.00
7233,520.00
7234,500.00
7235,520.00
7236,520.00
7237,520.00
7238,500.00
7239,500.00
7240,500.00
7241,500.00
7242,520.00
7243,500.00
7244,500.00
7245,500.00
7246,520.00
7247,500.00
7248,500.00
7249,500.00
7250,500.00
7251,500.00
7252,500.00
7253,500.00
7254,500.00
7255,500.00
7256,500.00
7257,500.00
7258,500.00
7259,500.00
7260,500.00
7261,500.00
7262,500.00
7263,500.00
7264,500.00
7265,500.00
7266,480.00
7267,500.00
7268,500.00
7269,500.00
7270,500.00
7271,500.00
7272,500.00
7273,500.00
7274,500.00
7275,480.00
7276,480.00
7277,480.00
7278,480.00
7279,480.00
7280,480.00
7281,480.00
7282,480.00
7283,460.00
7284,480.00
7285,460.00
7286,480.00
7287,460.00
7288,460.00
7289,460.00
7290,460.00
7291,460.00
7292,460.00
7293,460.00
7294,460.00
7295,460.00
7296,460.00
7297,460.00
7298,460.00
7299,460.00
7300,440.00
7301,460.00
7302,460.00
7303,440.00
7304,460.00
7305,420.00
7306,420.00
7307,460.00
7308,440.00
7309,460.00
7310,440.00
7311,440.00
7312,400.00
7313,440.00
7314,420.00
7315,420.00
7316,420.00
7317,440.00
7318,420.00
7319,440.00
7320,420.00
7321,400.00
7322,420.00
7323,420.00
7324,400.00
7325,420.00
7326,420.00
7327,420.00
7328,420.00
7329,420.00
7330,420.00
7331,420.00
7332,420.00
7333,420.00
7334,420.00
7335,420.00
7336,400.00
7337,400.00
7338,420.00
7339,400.00
7340,420.00
7341,400.00
7342,400.00
7343,400.00
7344,400.00
7345,400.00
7346,400.00
7347,420.00
7348,380.00
7349,400.00
7350,380.00
7351,380.00
7352,400.00
7353,380.00
7354,400.00
7355,400.00
7356,380.00
7357,380.00
7358,400.00
7359,380.00
7360,380.00
7361,380.00
7362,380.00
7363,360.00
7364,380.00
7365,380.00
7366,360.00
7367,380.00
7368,380.00
7369,360.00
7370,380.00
7371,380.00
7372,360.00
7373,360.00
7374,360.00
7375,360.00
7376,340.00
7377,360.00
7378,340.00
7379,360.00
7380,340.00
7381,340.00
7382,340.00
7383,340.00
7384,340.00
7385,340.00
7386,340.00
7387,340.00
7388,340.00
7389,340.00
7390,360.00
7391,340.00
7392,340.00
7393,340.00
7394,340.00
7395,340.00
7396,320.00
7397,320.00
7398,320.00
7399,320.00
7400,320.00
7401,320.00
7402,320.00
7403,320.00
7404,340.00
7405,320.00
7406,320.00
7407,320.00
7408,320.00
7409,320.00
7410,320.00
7411,320.00
7412,320.00
7413,320.00
7414,320.00
7415,320.00
7416,320.00
7417,320.00
7418,320.00
7419,320.00
7420,320.00
7421,320.00
7422,300.00
7423,300.00
7424,300.00
7425,320.00
7426,300.00
7427,320.00
7428,300.00
7429,300.00
7430,300.00
7431,300.00
7432,280.00
7433,280.00
7434,280.00
7435,280.00
7436,280.00
7437,280.00
7438,280.00
7439,280.00
7440,300.00
7441,280.00
7442,280.00
7443,280.00
7444,280.00
7445,280.00
7446,280.00
7447,280.00
7448,260.00
7449,280.00
7450,280.00
7451,280.00
7452,280.00
7453,280.00
7454,280.00
7455,280.00
7456,280.00
7457,260.00
7458,260.00
7459,260.00
7460,260.00
7461,260.00
7462,260.00
7463,260.00
7464,260.00
7465,240.00
7466,260.00
7467,260.00
7468,260.00
7469,240.00
7470,240.00
7471,240.00
7472,240.00
7473,240.00
7474,240.00
7475,240.00
7476,240.00
7477,240.00
7478,240.00
7479,220.00
7480,220.00
7481,220.00
7482,220.00
7483,220.00
7484,220.00
7485,200.00
7486,200.00
7487,220.00
7488,200.00
7489,200.00
7490,200.00
7491,200.00
7492,220.00
7493,180.00
7494,180.00
7495,180.00
7496,180.00
7497,160.00
7498,180.00
7499,180.00
7500,200.00
7501,160.00
7502,180.00
7503,180.00
7504,200.00
7505,160.00
7506,160.00
7507,160.00
7508,160.00
7509,180.00
7510,160.00
7511,160.00
7512,160.00
7513,160.00
7514,160.00
7515,160.00
7516,160.00
7517,160.00
7518,160.00
7519,160.00
7520,160.00
7521,140.00
7522,160.00
7523,140.00
7524,160.00
7525,160.00
7526,120.00
7527,120.00
7528,120.00
7529,120.00
7530,120.00
7531,120.00
7532,140.00
7533,120.00
7534,120.00
7535,120.00
7536,120.00
7537,120.00
7538,120.00
7539,120.00
7540,120.00
7541,140.00
7542,120.00
7543,120.00
7544,120.00
7545,120.00
7546,120.00
7547,120.00
7548,120.00
7549,120.00
7550,120.00
7551,120.00
7552,120.00
7553,120.00
7554,120.00
7555,120.00
7556,120.00
7557,100.00
7558,120.00
7559,120.00
7560,100.00
7561,120.00
7562,120.00
7563,120.00
7564,100.00
7565,100.00
7566,100.00
7567,100.00
7568,100.00
7569,100.00
7570,80.00
7571,100.00
7572,80.00
7573,80.00
7574,80.00
7575,80.00
7576,80.00
7577,80.00
7578,80.00
7579,60.00
7580,80.00
7581,60.00
7582,60.00
7583,80.00
7584,60.00
7585,60.00
7586,60.00
7587,60.00
7588,60.00
7589,60.00
7590,60.00
7591,40.00
7592,40.00
7593,20.00
7594,40.00
7595,60.00
7596,20.00
7597,20.00
7598,40.00
7599,20.00
7600,40.00
7601,40.00
7602,20.00
7603,20.00
7604,20.00
7605,20.00
7606,20.00
7607,20.00
7608,20.00
7609,20.00
7610,20.00
7611,20.00
7612,20.00
7613,20.00
7614,20.00
7615,0.00
7616,-20.00
7617,20.00
7618,0.00
7619,0.00
7620,-20.00
7621,0.00
7622,-20.00
7623,0.00
7624,0.00
7625,-20.00
7626,-40.00
7627,-20.00
7628,-20.00
7629,-20.00
7630,-20.00
7631,-20.00
7632,-20.00
7633,-20.00
7634,-20.00
7635,-20.00
7636,-20.00
7637,-20.00
7638,-20.00
7639,-40.00
7640,-40.00
7641,-40.00
7642,-40.00
7643,-40.00
7644,-40.00
7645,-40.00
7646,-20.00
7647,-40.00
7648,-40.00
7649,-40.00
7650,-60.00
7651,-60.00
7652,-60.00
7653,-60.00
7654,-60.00
7655,-60.00
7656,-60.00
7657,-60.00
7658,-60.00
7659,-60.00
7660,-60.00
7661,-60.00
7662,-60.00
7663,-60.00
7664,-80.00
7665,-100.00
7666,-60.00
7667,-60.00
7668,-60.00
7669,-60.00
7670,-60.00
7671,-80.00
7672,-80.00
7673,-100.00
7674,-100.00
7675,-100.00
7676,-100.00
7677,-100.00
7678,-100.00
7679,-100.00
7680,-100.00
7681,-80.00
7682,-100.00
7683,-100.00
7684,-120.00
7685,-120.00
7686,-100.00
7687,-120.00
7688,-120.00
7689,-120.00
7690,-120.00
7691,-120.00
7692,-120.00
7693,-100.00
7694,-120.00
7695,-120.00
7696,-120.00
7697,-120.00
7698,-120.00
7699,-140.00
7700,-120.00
7701,-140.00
7702,-140.00
7703,-140.00
7704,-160.00
7705,-140.00
7706,-160.00
7707,-140.00
7708,-160.00
7709,-160.00
7710,-180.00
7711,-160.00
7712,-160.00
7713,-160.00
7714,-140.00
7715,-160.00
7716,-160.00
7717,-140.00
7718,-160.00
7719,-160.00
7720,-160.00
7721,-160.00
7722,-160.00
7723,-160.00
7724,-160.00
7725,-160.00
7726,-160.00
7727,-180.00
7728,-180.00
7729,-160.00
7730,-180.00
7731,-180.00
7732,-180.00
7733,-180.00
7734,-160.00
7735,-160.00
7736,-180.00
7737,-180.00
7738,-180.00
7739,-200.00
7740,-180.00
7741,-180.00
7742,-180.00
7743,-200.00
7744,-180.00
7745,-180.00
7746,-200.00
7747,-200.00
7748,-200.00
7749,-220.00
7750,-220.00
7751,-200.00
7752,-200.00
7753,-200.00
7754,-200.00
7755,-220.00
7756,-200.00
7757,-200.00
7758,-220.00
7759,-220.00
7760,-220.00
7761,-220.00
7762,-220.00
7763,-220.00
7764,-220.00
7765,-240.00
7766,-220.00
7767,-240.00
7768,-240.00
7769,-240.00
7770,-240.00
7771,-240.00
7772,-240.00
7773,-240.00
7774,-240.00
7775,-240.00
7776,-260.00
7777,-240.00
7778,-240.00
7779,-240.00
7780,-240.00
7781,-240.00
7782,-260.00
7783,-260.00
7784,-260.00
7785,-260.00
7786,-260.00
7787,-260.00
7788,-260.00
7789,-260.00
7790,-260.00
7791,-260.00
7792,-260.00
7793,-280.00
7794,-260.00
7795,-260.00
7796,-280.00
7797,-260.00
7798,-260.00
7799,-260.00
7800,-280.00
7801,-260.00
7802,-260.00
7803,-280.00
7804,-280.00
7805,-280.00
7806,-280.00
7807,-280.00
7808,-280.00
7809,-280.00
7810,-300.00
7811,-280.00
7812,-280.00
7813,-280.00
7814,-300.00
7815,-300.00
7816,-320.00
7817,-320.00
7818,-300.00
7819,-300.00
7820,-300.00
7821,-300.00
7822,-300.00
7823,-300.00
7824,-300.00
7825,-300.00
7826,-300.00
7827,-320.00
7828,-320.00
7829,-320.00
7830,-320.00
7831,-320.00
7832,-320.00
7833,-300.00
7834,-320.00
7835,-320.00
7836,-320.00
7837,-320.00
7838,-300.00
7839,-320.00
7840,-340.00
7841,-320.00
7842,-320.00
7843,-340.00
7844,-320.00
7845,-320.00
7846,-340.00
7847,-340.00
7848,-320.00
7849,-340.00
7850,-360.00
7851,-340.00
7852,-340.00
7853,-360.00
7854,-360.00
7855,-340.00
7856,-380.00
7857,-360.00
7858,-360.00
7859,-340.00
7860,-340.00
7861,-360.00
7862,-360.00
7863,-380.00
7864,-400.00
7865,-380.00
7866,-380.00
7867,-380.00
7868,-380.00
7869,-380.00
7870,-380.00
7871,-380.00
7872,-380.00
7873,-380.00
7874,-380.00
7875,-380.00
7876,-380.00
7877,-420.00
7878,-420.00
7879,-400.00
7880,-400.00
7881,-380.00
7882,-400.00
7883,-400.00
7884,-400.00
7885,-420.00
7886,-400.00
7887,-420.00
7888,-420.00
7889,-420.00
7890,-420.00
7891,-420.00
7892,-420.00
7893,-400.00
7894,-420.00
7895,-420.00
7896,-400.00
7897,-420.00
7898,-420.00
7899,-420.00
7900,-420.00
7901,-420.00
7902,-440.00
7903,-420.00
7904,-440.00
7905,-420.00
7906,-420.00
7907,-420.00
7908,-440.00
7909,-420.00
7910,-420.00
7911,-440.00
7912,-440.00
7913,-440.00
7914,-440.00
7915,-440.00
7916,-440.00
7917,-460.00
7918,-460.00
7919,-460.00
7920,-440.00
7921,-460.00
7922,-460.00
7923,-480.00
7924,-440.00
7925,-440.00
7926,-440.00
7927,-440.00
7928,-440.00
7929,-440.00
7930,-440.00
7931,-440.00
7932,-440.00
7933,-440.00
7934,-440.00
7935,-440.00
7936,-460.00
7937,-440.00
7938,-460.00
7939,-440.00
7940,-440.00
7941,-460.00
7942,-440.00
7943,-460.00
7944,-460.00
7945,-440.00
7946,-460.00
7947,-460.00
7948,-460.00
7949,-460.00
7950,-480.00
7951,-460.00
7952,-460.00
7953,-460.00
7954,-460.00
7955,-460.00
7956,-460.00
7957,-480.00
7958,-480.00
7959,-480.00
7960,-480.00
7961,540.00
7962,580.00
7963,560.00
7964,560.00
7965,560.00
7966,560.00
7967,560.00
7968,560.00
7969,560.00
7970,560.00
7971,560.00
7972,540.00
7973,560.00
7974,560.00
7975,560.00
7976,560.00
7977,560.00
7978,560.00
7979,560.00
7980,540.00
7981,560.00
7982,540.00
7983,540.00
7984,540.00
7985,560.00
7986,560.00
7987,560.00
7988,540.00
7989,540.00
7990,540.00
7991,540.00
7992,540.00
7993,540.00
7994,540.00
7995,540.00
7996,540.00
7997,540.00
7998,540.00
7999,540.00
