Channel			  :,CH1
Frequency			  :,F=  ?
Period 			  :,T=  ?
PK-PK				  :,Vpp=3.520V
Average			  :,V=-1.306V
Vertical pos		  :,0.00mV
Probe attenuation	  :,10X
Voltage per ADC value:,40.00mV
Time interval		  :,0.08uS

index,CH1_Voltage(mV)
0,160.00
1,160.00
2,160.00
3,160.00
4,160.00
5,120.00
6,200.00
7,160.00
8,160.00
9,160.00
10,120.00
11,200.00
12,200.00
13,200.00
14,200.00
15,160.00
16,200.00
17,160.00
18,200.00
19,160.00
20,240.00
21,200.00
22,40.00
23,160.00
24,160.00
25,120.00
26,200.00
27,240.00
28,240.00
29,160.00
30,160.00
31,160.00
32,200.00
33,240.00
34,200.00
35,160.00
36,160.00
37,120.00
38,240.00
39,240.00
40,200.00
41,120.00
42,160.00
43,200.00
44,200.00
45,200.00
46,160.00
47,160.00
48,200.00
49,200.00
50,240.00
51,200.00
52,80.00
53,200.00
54,240.00
55,240.00
56,200.00
57,160.00
58,160.00
59,200.00
60,240.00
61,200.00
62,160.00
63,200.00
64,200.00
65,240.00
66,240.00
67,200.00
68,120.00
69,200.00
70,280.00
71,200.00
72,40.00
73,120.00
74,160.00
75,160.00
76,240.00
77,280.00
78,240.00
79,160.00
80,120.00
81,120.00
82,240.00
83,240.00
84,160.00
85,120.00
86,120.00
87,200.00
88,240.00
89,200.00
90,160.00
91,160.00
92,160.00
93,240.00
94,200.00
95,200.00
96,160.00
97,120.00
98,200.00
99,240.00
100,200.00
101,160.00
102,120.00
103,160.00
104,240.00
105,240.00
106,200.00
107,160.00
108,200.00
109,240.00
110,200.00
111,200.00
112,160.00
113,160.00
114,200.00
115,240.00
116,240.00
117,160.00
118,200.00
119,200.00
120,280.00
121,240.00
122,40.00
123,80.00
124,120.00
125,160.00
126,200.00
127,240.00
128,240.00
129,160.00
130,160.00
131,160.00
132,240.00
133,240.00
134,200.00
135,160.00
136,120.00
137,200.00
138,240.00
139,240.00
140,120.00
141,120.00
142,160.00
143,240.00
144,240.00
145,200.00
146,120.00
147,120.00
148,160.00
149,240.00
150,200.00
151,160.00
152,120.00
153,200.00
154,240.00
155,240.00
156,200.00
157,160.00
158,120.00
159,200.00
160,200.00
161,200.00
162,160.00
163,160.00
164,160.00
165,200.00
166,200.00
167,160.00
168,160.00
169,160.00
170,280.00
171,240.00
172,40.00
173,80.00
174,80.00
175,160.00
176,200.00
177,280.00
178,200.00
179,120.00
180,120.00
181,120.00
182,200.00
183,240.00
184,160.00
185,80.00
186,80.00
187,160.00
188,240.00
189,200.00
190,160.00
191,120.00
192,160.00
193,240.00
194,200.00
195,160.00
196,80.00
197,120.00
198,200.00
199,200.00
200,200.00
201,120.00
202,160.00
203,160.00
204,200.00
205,200.00
206,160.00
207,120.00
208,120.00
209,160.00
210,200.00
211,200.00
212,160.00
213,160.00
214,200.00
215,240.00
216,200.00
217,160.00
218,80.00
219,160.00
220,200.00
221,200.00
222,160.00
223,120.00
224,80.00
225,200.00
226,200.00
227,200.00
228,120.00
229,120.00
230,200.00
231,160.00
232,200.00
233,160.00
234,160.00
235,120.00
236,200.00
237,160.00
238,200.00
239,160.00
240,160.00
241,200.00
242,200.00
243,200.00
244,160.00
245,160.00
246,160.00
247,200.00
248,160.00
249,160.00
250,120.00
251,120.00
252,200.00
253,200.00
254,160.00
255,120.00
256,120.00
257,160.00
258,200.00
259,160.00
260,160.00
261,160.00
262,160.00
263,200.00
264,200.00
265,160.00
266,160.00
267,160.00
268,160.00
269,160.00
270,160.00
271,160.00
272,120.00
273,160.00
274,200.00
275,200.00
276,160.00
277,160.00
278,120.00
279,200.00
280,160.00
281,160.00
282,200.00
283,160.00
284,160.00
285,200.00
286,160.00
287,160.00
288,160.00
289,160.00
290,160.00
291,160.00
292,120.00
293,120.00
294,120.00
295,160.00
296,160.00
297,80.00
298,120.00
299,160.00
300,160.00
301,160.00
302,160.00
303,120.00
304,80.00
305,160.00
306,160.00
307,160.00
308,120.00
309,160.00
310,160.00
311,160.00
312,160.00
313,120.00
314,160.00
315,120.00
316,160.00
317,160.00
318,160.00
319,160.00
320,120.00
321,160.00
322,120.00
323,120.00
324,80.00
325,160.00
326,120.00
327,120.00
328,160.00
329,160.00
330,120.00
331,160.00
332,160.00
333,120.00
334,160.00
335,160.00
336,120.00
337,120.00
338,80.00
339,160.00
340,120.00
341,120.00
342,120.00
343,160.00
344,160.00
345,120.00
346,120.00
347,80.00
348,80.00
349,120.00
350,120.00
351,160.00
352,160.00
353,160.00
354,120.00
355,120.00
356,120.00
357,120.00
358,120.00
359,160.00
360,160.00
361,160.00
362,120.00
363,120.00
364,160.00
365,80.00
366,80.00
367,160.00
368,80.00
369,120.00
370,200.00
371,200.00
372,0.00
373,40.00
374,40.00
375,120.00
376,120.00
377,200.00
378,200.00
379,160.00
380,40.00
381,120.00
382,160.00
383,200.00
384,200.00
385,120.00
386,40.00
387,120.00
388,200.00
389,200.00
390,160.00
391,80.00
392,80.00
393,120.00
394,200.00
395,160.00
396,120.00
397,80.00
398,120.00
399,200.00
400,160.00
401,80.00
402,40.00
403,120.00
404,120.00
405,200.00
406,160.00
407,40.00
408,80.00
409,120.00
410,160.00
411,200.00
412,80.00
413,120.00
414,120.00
415,160.00
416,160.00
417,160.00
418,80.00
419,40.00
420,240.00
421,200.00
422,0.00
423,0.00
424,80.00
425,40.00
426,160.00
427,200.00
428,200.00
429,80.00
430,40.00
431,120.00
432,120.00
433,200.00
434,160.00
435,0.00
436,40.00
437,120.00
438,200.00
439,200.00
440,80.00
441,80.00
442,120.00
443,160.00
444,160.00
445,160.00
446,120.00
447,80.00
448,120.00
449,160.00
450,160.00
451,40.00
452,80.00
453,80.00
454,160.00
455,200.00
456,160.00
457,0.00
458,40.00
459,120.00
460,200.00
461,120.00
462,80.00
463,120.00
464,120.00
465,160.00
466,160.00
467,120.00
468,80.00
469,80.00
470,240.00
471,200.00
472,0.00
473,0.00
474,80.00
475,80.00
476,120.00
477,200.00
478,200.00
479,120.00
480,0.00
481,80.00
482,120.00
483,200.00
484,160.00
485,80.00
486,120.00
487,160.00
488,160.00
489,160.00
490,80.00
491,80.00
492,120.00
493,160.00
494,200.00
495,120.00
496,40.00
497,40.00
498,120.00
499,160.00
500,160.00
501,40.00
502,0.00
503,120.00
504,120.00
505,200.00
506,80.00
507,40.00
508,80.00
509,160.00
510,200.00
511,160.00
512,80.00
513,120.00
514,120.00
515,160.00
516,160.00
517,80.00
518,120.00
519,80.00
520,160.00
521,200.00
522,80.00
523,80.00
524,120.00
525,160.00
526,160.00
527,120.00
528,80.00
529,80.00
530,120.00
531,120.00
532,160.00
533,160.00
534,40.00
535,120.00
536,160.00
537,160.00
538,160.00
539,120.00
540,80.00
541,120.00
542,160.00
543,160.00
544,120.00
545,40.00
546,40.00
547,80.00
548,120.00
549,120.00
550,40.00
551,80.00
552,160.00
553,160.00
554,80.00
555,80.00
556,120.00
557,120.00
558,160.00
559,120.00
560,80.00
561,80.00
562,80.00
563,80.00
564,120.00
565,80.00
566,40.00
567,80.00
568,80.00
569,120.00
570,120.00
571,80.00
572,120.00
573,80.00
574,160.00
575,160.00
576,120.00
577,120.00
578,120.00
579,80.00
580,120.00
581,80.00
582,120.00
583,40.00
584,120.00
585,120.00
586,80.00
587,80.00
588,80.00
589,80.00
590,120.00
591,80.00
592,120.00
593,40.00
594,160.00
595,200.00
596,200.00
597,0.00
598,0.00
599,0.00
600,160.00
601,200.00
602,120.00
603,120.00
604,80.00
605,120.00
606,160.00
607,160.00
608,0.00
609,40.00
610,80.00
611,160.00
612,200.00
613,160.00
614,120.00
615,120.00
616,160.00
617,120.00
618,80.00
619,120.00
620,0.00
621,120.00
622,120.00
623,160.00
624,120.00
625,120.00
626,120.00
627,160.00
628,160.00
629,80.00
630,0.00
631,80.00
632,120.00
633,160.00
634,160.00
635,80.00
636,0.00
637,120.00
638,120.00
639,160.00
640,120.00
641,40.00
642,80.00
643,200.00
644,200.00
645,40.00
646,0.00
647,80.00
648,40.00
649,80.00
650,120.00
651,200.00
652,80.00
653,40.00
654,40.00
655,120.00
656,200.00
657,160.00
658,0.00
659,0.00
660,80.00
661,120.00
662,80.00
663,40.00
664,40.00
665,80.00
666,80.00
667,160.00
668,120.00
669,40.00
670,0.00
671,40.00
672,160.00
673,160.00
674,40.00
675,0.00
676,120.00
677,80.00
678,160.00
679,120.00
680,0.00
681,120.00
682,120.00
683,120.00
684,80.00
685,120.00
686,80.00
687,120.00
688,160.00
689,120.00
690,80.00
691,0.00
692,0.00
693,200.00
694,200.00
695,0.00
696,0.00
697,40.00
698,120.00
699,120.00
700,200.00
701,160.00
702,120.00
703,80.00
704,80.00
705,80.00
706,200.00
707,160.00
708,0.00
709,0.00
710,120.00
711,120.00
712,160.00
713,40.00
714,0.00
715,80.00
716,120.00
717,160.00
718,80.00
719,40.00
720,40.00
721,80.00
722,160.00
723,160.00
724,40.00
725,0.00
726,40.00
727,80.00
728,120.00
729,80.00
730,0.00
731,0.00
732,120.00
733,120.00
734,120.00
735,40.00
736,80.00
737,120.00
738,120.00
739,160.00
740,80.00
741,40.00
742,120.00
743,200.00
744,200.00
745,0.00
746,-40.00
747,0.00
748,0.00
749,120.00
750,160.00
751,200.00
752,80.00
753,0.00
754,40.00
755,120.00
756,160.00
757,120.00
758,0.00
759,80.00
760,40.00
761,160.00
762,200.00
763,40.00
764,0.00
765,40.00
766,160.00
767,80.00
768,80.00
769,40.00
770,0.00
771,80.00
772,160.00
773,160.00
774,40.00
775,80.00
776,80.00
777,160.00
778,160.00
779,80.00
780,0.00
781,40.00
782,120.00
783,120.00
784,120.00
785,40.00
786,40.00
787,120.00
788,120.00
789,120.00
790,40.00
791,40.00
792,0.00
793,120.00
794,160.00
795,80.00
796,0.00
797,40.00
798,80.00
799,120.00
800,80.00
801,80.00
802,40.00
803,80.00
804,120.00
805,120.00
806,80.00
807,40.00
808,40.00
809,80.00
810,160.00
811,80.00
812,80.00
813,0.00
814,120.00
815,120.00
816,120.00
817,80.00
818,0.00
819,120.00
820,80.00
821,120.00
822,120.00
823,40.00
824,40.00
825,40.00
826,120.00
827,80.00
828,80.00
829,80.00
830,80.00
831,120.00
832,80.00
833,40.00
834,120.00
835,40.00
836,40.00
837,80.00
838,80.00
839,40.00
840,80.00
841,40.00
842,80.00
843,120.00
844,40.00
845,40.00
846,40.00
847,120.00
848,80.00
849,80.00
850,0.00
851,120.00
852,80.00
853,40.00
854,160.00
855,40.00
856,0.00
857,120.00
858,80.00
859,160.00
860,120.00
861,120.00
862,120.00
863,40.00
864,80.00
865,120.00
866,120.00
867,0.00
868,120.00
869,120.00
870,80.00
871,40.00
872,80.00
873,40.00
874,120.00
875,120.00
876,80.00
877,40.00
878,40.00
879,120.00
880,80.00
881,0.00
882,0.00
883,40.00
884,40.00
885,40.00
886,40.00
887,120.00
888,40.00
889,40.00
890,120.00
891,40.00
892,80.00
893,40.00
894,40.00
895,120.00
896,0.00
897,120.00
898,40.00
899,40.00
900,80.00
901,40.00
902,80.00
903,40.00
904,40.00
905,80.00
906,120.00
907,40.00
908,0.00
909,80.00
910,80.00
911,80.00
912,80.00
913,40.00
914,40.00
915,40.00
916,80.00
917,0.00
918,160.00
919,160.00
920,0.00
921,0.00
922,0.00
923,80.00
924,0.00
925,120.00
926,160.00
927,160.00
928,0.00
929,0.00
930,40.00
931,120.00
932,160.00
933,0.00
934,0.00
935,80.00
936,160.00
937,160.00
938,120.00
939,0.00
940,40.00
941,40.00
942,120.00
943,120.00
944,80.00
945,0.00
946,0.00
947,120.00
948,80.00
949,40.00
950,0.00
951,40.00
952,120.00
953,80.00
954,80.00
955,0.00
956,0.00
957,40.00
958,120.00
959,120.00
960,40.00
961,0.00
962,40.00
963,80.00
964,120.00
965,120.00
966,80.00
967,0.00
968,120.00
969,200.00
970,40.00
971,-80.00
972,0.00
973,0.00
974,120.00
975,160.00
976,160.00
977,0.00
978,0.00
979,0.00
980,40.00
981,160.00
982,120.00
983,0.00
984,0.00
985,80.00
986,120.00
987,120.00
988,0.00
989,0.00
990,0.00
991,80.00
992,160.00
993,120.00
994,0.00
995,0.00
996,40.00
997,80.00
998,120.00
999,0.00
1000,40.00
1001,0.00
1002,80.00
1003,160.00
1004,120.00
1005,0.00
1006,0.00
1007,120.00
1008,120.00
1009,80.00
1010,0.00
1011,0.00
1012,40.00
1013,120.00
1014,80.00
1015,0.00
1016,80.00
1017,80.00
1018,80.00
1019,120.00
1020,120.00
1021,0.00
1022,40.00
1023,40.00
1024,80.00
1025,40.00
1026,80.00
1027,40.00
1028,80.00
1029,80.00
1030,40.00
1031,0.00
1032,40.00
1033,0.00
1034,120.00
1035,160.00
1036,40.00
1037,0.00
1038,0.00
1039,40.00
1040,120.00
1041,120.00
1042,80.00
1043,40.00
1044,0.00
1045,40.00
1046,40.00
1047,80.00
1048,40.00
1049,80.00
1050,80.00
1051,120.00
1052,80.00
1053,40.00
1054,0.00
1055,40.00
1056,40.00
1057,40.00
1058,40.00
1059,0.00
1060,40.00
1061,80.00
1062,120.00
1063,40.00
1064,0.00
1065,80.00
1066,40.00
1067,80.00
1068,80.00
1069,0.00
1070,0.00
1071,40.00
1072,80.00
1073,40.00
1074,0.00
1075,80.00
1076,40.00
1077,40.00
1078,120.00
1079,0.00
1080,40.00
1081,0.00
1082,40.00
1083,80.00
1084,80.00
1085,0.00
1086,0.00
1087,80.00
1088,80.00
1089,0.00
1090,40.00
1091,80.00
1092,0.00
1093,80.00
1094,80.00
1095,80.00
1096,40.00
1097,40.00
1098,80.00
1099,80.00
1100,0.00
1101,40.00
1102,80.00
1103,40.00
1104,120.00
1105,80.00
1106,40.00
1107,80.00
1108,0.00
1109,120.00
1110,120.00
1111,120.00
1112,0.00
1113,80.00
1114,80.00
1115,40.00
1116,120.00
1117,120.00
1118,120.00
1119,120.00
1120,120.00
1121,40.00
1122,80.00
1123,40.00
1124,80.00
1125,80.00
1126,80.00
1127,40.00
1128,120.00
1129,0.00
1130,120.00
1131,80.00
1132,80.00
1133,80.00
1134,40.00
1135,120.00
1136,80.00
1137,120.00
1138,120.00
1139,40.00
1140,80.00
1141,120.00
1142,40.00
1143,80.00
1144,120.00
1145,120.00
1146,40.00
1147,160.00
1148,80.00
1149,80.00
1150,40.00
1151,80.00
1152,160.00
1153,120.00
1154,80.00
1155,80.00
1156,120.00
1157,160.00
1158,120.00
1159,40.00
1160,120.00
1161,80.00
1162,160.00
1163,120.00
1164,160.00
1165,160.00
1166,120.00
1167,160.00
1168,120.00
1169,240.00
1170,160.00
1171,0.00
1172,0.00
1173,80.00
1174,160.00
1175,160.00
1176,200.00
1177,200.00
1178,40.00
1179,40.00
1180,120.00
1181,200.00
1182,240.00
1183,160.00
1184,120.00
1185,120.00
1186,160.00
1187,240.00
1188,200.00
1189,120.00
1190,80.00
1191,160.00
1192,200.00
1193,240.00
1194,160.00
1195,120.00
1196,160.00
1197,200.00
1198,200.00
1199,160.00
1200,160.00
1201,200.00
1202,200.00
1203,120.00
1204,160.00
1205,120.00
1206,200.00
1207,200.00
1208,160.00
1209,120.00
1210,120.00
1211,200.00
1212,200.00
1213,200.00
1214,160.00
1215,120.00
1216,160.00
1217,240.00
1218,240.00
1219,40.00
1220,160.00
1221,120.00
1222,200.00
1223,240.00
1224,240.00
1225,200.00
1226,120.00
1227,160.00
1228,200.00
1229,240.00
1230,240.00
1231,200.00
1232,120.00
1233,120.00
1234,240.00
1235,240.00
1236,200.00
1237,160.00
1238,160.00
1239,200.00
1240,240.00
1241,240.00
1242,120.00
1243,120.00
1244,200.00
1245,240.00
1246,240.00
1247,160.00
1248,160.00
1249,200.00
1250,200.00
1251,200.00
1252,200.00
1253,200.00
1254,160.00
1255,200.00
1256,200.00
1257,200.00
1258,200.00
1259,160.00
1260,200.00
1261,200.00
1262,240.00
1263,200.00
1264,160.00
1265,160.00
1266,160.00
1267,200.00
1268,200.00
1269,0.00
1270,120.00
1271,120.00
1272,200.00
1273,240.00
1274,280.00
1275,200.00
1276,160.00
1277,160.00
1278,200.00
1279,240.00
1280,240.00
1281,160.00
1282,40.00
1283,120.00
1284,200.00
1285,240.00
1286,200.00
1287,120.00
1288,120.00
1289,200.00
1290,240.00
1291,200.00
1292,160.00
1293,160.00
1294,160.00
1295,240.00
1296,200.00
1297,200.00
1298,160.00
1299,160.00
1300,160.00
1301,240.00
1302,200.00
1303,160.00
1304,120.00
1305,200.00
1306,200.00
1307,200.00
1308,160.00
1309,160.00
1310,200.00
1311,200.00
1312,240.00
1313,200.00
1314,160.00
1315,160.00
1316,200.00
1317,200.00
1318,200.00
1319,160.00
1320,160.00
1321,200.00
1322,200.00
1323,200.00
1324,160.00
1325,160.00
1326,200.00
1327,200.00
1328,240.00
1329,240.00
1330,160.00
1331,160.00
1332,200.00
1333,200.00
1334,200.00
1335,160.00
1336,120.00
1337,200.00
1338,200.00
1339,200.00
1340,200.00
1341,160.00
1342,160.00
1343,200.00
1344,200.00
1345,200.00
1346,160.00
1347,160.00
1348,200.00
1349,160.00
1350,200.00
1351,160.00
1352,160.00
1353,160.00
1354,200.00
1355,200.00
1356,160.00
1357,160.00
1358,160.00
1359,200.00
1360,200.00
1361,160.00
1362,160.00
1363,200.00
1364,160.00
1365,200.00
1366,240.00
1367,160.00
1368,160.00
1369,160.00
1370,200.00
1371,200.00
1372,160.00
1373,160.00
1374,160.00
1375,160.00
1376,160.00
1377,160.00
1378,160.00
1379,120.00
1380,200.00
1381,160.00
1382,160.00
1383,200.00
1384,200.00
1385,200.00
1386,200.00
1387,160.00
1388,160.00
1389,200.00
1390,160.00
1391,200.00
1392,240.00
1393,200.00
1394,0.00
1395,120.00
1396,80.00
1397,120.00
1398,200.00
1399,240.00
1400,200.00
1401,120.00
1402,80.00
1403,160.00
1404,200.00
1405,200.00
1406,160.00
1407,120.00
1408,120.00
1409,200.00
1410,240.00
1411,200.00
1412,80.00
1413,80.00
1414,120.00
1415,200.00
1416,240.00
1417,160.00
1418,120.00
1419,160.00
1420,200.00
1421,200.00
1422,200.00
1423,80.00
1424,80.00
1425,160.00
1426,200.00
1427,200.00
1428,160.00
1429,120.00
1430,120.00
1431,200.00
1432,200.00
1433,120.00
1434,120.00
1435,120.00
1436,160.00
1437,200.00
1438,200.00
1439,120.00
1440,80.00
1441,160.00
1442,240.00
1443,200.00
1444,0.00
1445,0.00
1446,120.00
1447,120.00
1448,200.00
1449,240.00
1450,200.00
1451,40.00
1452,120.00
1453,160.00
1454,200.00
1455,200.00
1456,120.00
1457,160.00
1458,120.00
1459,200.00
1460,240.00
1461,200.00
1462,120.00
1463,80.00
1464,160.00
1465,200.00
1466,200.00
1467,120.00
1468,80.00
1469,120.00
1470,200.00
1471,200.00
1472,120.00
1473,120.00
1474,80.00
1475,200.00
1476,200.00
1477,200.00
1478,120.00
1479,80.00
1480,120.00
1481,200.00
1482,200.00
1483,160.00
1484,160.00
1485,80.00
1486,200.00
1487,200.00
1488,160.00
1489,80.00
1490,120.00
1491,160.00
1492,200.00
1493,200.00
1494,120.00
1495,80.00
1496,80.00
1497,200.00
1498,160.00
1499,120.00
1500,40.00
1501,80.00
1502,200.00
1503,160.00
1504,120.00
1505,160.00
1506,80.00
1507,160.00
1508,200.00
1509,160.00
1510,160.00
1511,40.00
1512,160.00
1513,200.00
1514,160.00
1515,160.00
1516,120.00
1517,160.00
1518,160.00
1519,160.00
1520,200.00
1521,120.00
1522,160.00
1523,120.00
1524,200.00
1525,160.00
1526,160.00
1527,120.00
1528,160.00
1529,160.00
1530,160.00
1531,160.00
1532,80.00
1533,80.00
1534,80.00
1535,200.00
1536,160.00
1537,120.00
1538,160.00
1539,120.00
1540,160.00
1541,160.00
1542,160.00
1543,160.00
1544,120.00
1545,160.00
1546,200.00
1547,120.00
1548,160.00
1549,120.00
1550,160.00
1551,160.00
1552,120.00
1553,160.00
1554,120.00
1555,120.00
1556,160.00
1557,160.00
1558,160.00
1559,120.00
1560,160.00
1561,120.00
1562,160.00
1563,160.00
1564,120.00
1565,160.00
1566,40.00
1567,200.00
1568,200.00
1569,0.00
1570,40.00
1571,40.00
1572,120.00
1573,160.00
1574,200.00
1575,200.00
1576,80.00
1577,40.00
1578,80.00
1579,200.00
1580,200.00
1581,160.00
1582,80.00
1583,120.00
1584,120.00
1585,200.00
1586,160.00
1587,80.00
1588,0.00
1589,120.00
1590,160.00
1591,200.00
1592,80.00
1593,80.00
1594,40.00
1595,160.00
1596,200.00
1597,160.00
1598,120.00
1599,120.00
1600,120.00
1601,200.00
1602,120.00
1603,120.00
1604,120.00
1605,160.00
1606,120.00
1607,200.00
1608,160.00
1609,80.00
1610,120.00
1611,160.00
1612,160.00
1613,200.00
1614,120.00
1615,80.00
1616,80.00
1617,240.00
1618,240.00
1619,0.00
1620,40.00
1621,40.00
1622,160.00
1623,120.00
1624,200.00
1625,200.00
1626,40.00
1627,80.00
1628,80.00
1629,160.00
1630,160.00
1631,120.00
1632,0.00
1633,80.00
1634,120.00
1635,200.00
1636,160.00
1637,120.00
1638,40.00
1639,120.00
1640,200.00
1641,160.00
1642,120.00
1643,80.00
1644,120.00
1645,120.00
1646,200.00
1647,120.00
1648,80.00
1649,40.00
1650,120.00
1651,160.00
1652,160.00
1653,40.00
1654,-280.00
1655,-160.00
1656,-40.00
1657,-80.00
1658,0.00
1659,0.00
1660,0.00
1661,80.00
1662,120.00
1663,120.00
1664,0.00
1665,40.00
1666,120.00
1667,120.00
1668,160.00
1669,80.00
1670,80.00
1671,120.00
1672,120.00
1673,120.00
1674,120.00
1675,80.00
1676,80.00
1677,160.00
1678,160.00
1679,120.00
1680,80.00
1681,120.00
1682,80.00
1683,160.00
1684,120.00
1685,40.00
1686,120.00
1687,80.00
1688,160.00
1689,120.00
1690,80.00
1691,120.00
1692,160.00
1693,120.00
1694,120.00
1695,160.00
1696,0.00
1697,80.00
1698,120.00
1699,120.00
1700,80.00
1701,80.00
1702,120.00
1703,120.00
1704,160.00
1705,160.00
1706,120.00
1707,160.00
1708,120.00
1709,120.00
1710,120.00
1711,80.00
1712,160.00
1713,80.00
1714,80.00
1715,80.00
1716,-2920.00
1717,-3160.00
1718,-3160.00
1719,-3160.00
1720,-3120.00
1721,-3160.00
1722,-3120.00
1723,-3160.00
1724,-3160.00
1725,-3120.00
1726,-3160.00
1727,-3120.00
1728,-3160.00
1729,-3120.00
1730,-3120.00
1731,-3120.00
1732,-3120.00
1733,-3120.00
1734,-3160.00
1735,-3120.00
1736,-3120.00
1737,-3120.00
1738,-3160.00
1739,-3160.00
1740,-3120.00
1741,-3120.00
1742,-3160.00
1743,-3200.00
1744,-3160.00
1745,-3160.00
1746,-3160.00
1747,-3160.00
1748,-3160.00
1749,-3160.00
1750,-3160.00
1751,-3240.00
1752,-3160.00
1753,-3160.00
1754,-3160.00
1755,-3160.00
1756,-3120.00
1757,-3160.00
1758,-3120.00
1759,-3120.00
1760,-3160.00
1761,-3120.00
1762,-3160.00
1763,-3160.00
1764,-3160.00
1765,-3200.00
1766,-3160.00
1767,-3120.00
1768,-3160.00
1769,-3120.00
1770,-3160.00
1771,-3160.00
1772,-3160.00
1773,-3160.00
1774,-3160.00
1775,-3160.00
1776,-3160.00
1777,-3120.00
1778,-3160.00
1779,-3160.00
1780,-3160.00
1781,-3160.00
1782,-3160.00
1783,-3160.00
1784,-3160.00
1785,-3160.00
1786,-3160.00
1787,-3120.00
1788,-3160.00
1789,-3160.00
1790,-3120.00
1791,-3160.00
1792,-3160.00
1793,-3160.00
1794,-3160.00
1795,-3160.00
1796,-3160.00
1797,-3160.00
1798,-3160.00
1799,-3240.00
1800,-3160.00
1801,-3120.00
1802,-3160.00
1803,-3160.00
1804,-3160.00
1805,-3160.00
1806,-3160.00
1807,-3160.00
1808,-3160.00
1809,-3160.00
1810,-3160.00
1811,-3160.00
1812,-3160.00
1813,-3120.00
1814,-3120.00
1815,-3160.00
1816,-3160.00
1817,-3160.00
1818,-3120.00
1819,-3160.00
1820,-3160.00
1821,-3160.00
1822,-3160.00
1823,-3160.00
1824,-3160.00
1825,-3160.00
1826,-3160.00
1827,-3160.00
1828,-3160.00
1829,-3120.00
1830,-3160.00
1831,-3160.00
1832,-3120.00
1833,-3160.00
1834,-3120.00
1835,-3120.00
1836,-3160.00
1837,-3160.00
1838,-3160.00
1839,-3160.00
1840,-3160.00
1841,-3120.00
1842,-3160.00
1843,-3160.00
1844,-3160.00
1845,-3160.00
1846,-3160.00
1847,-3160.00
1848,-3160.00
1849,-3160.00
1850,-3160.00
1851,-3160.00
1852,-3160.00
1853,-3120.00
1854,-3160.00
1855,-3160.00
1856,-3160.00
1857,-3120.00
1858,-3160.00
1859,-3160.00
1860,-3160.00
1861,-3160.00
1862,-3160.00
1863,-3160.00
1864,-3160.00
1865,-3160.00
1866,-3160.00
1867,-3160.00
1868,-3160.00
1869,-3160.00
1870,-3160.00
1871,-3160.00
1872,-3160.00
1873,-3120.00
1874,-3120.00
1875,-3160.00
1876,-3120.00
1877,-3160.00
1878,-3120.00
1879,-3120.00
1880,-3160.00
1881,-3160.00
1882,-3160.00
1883,-3160.00
1884,-3160.00
1885,-3160.00
1886,-3160.00
1887,-3160.00
1888,-3160.00
1889,-3200.00
1890,-3160.00
1891,-3160.00
1892,-3160.00
1893,-3200.00
1894,-3160.00
1895,-3120.00
1896,-3160.00
1897,-3160.00
1898,-3160.00
1899,-3160.00
1900,-3120.00
1901,-3160.00
1902,-3160.00
1903,-3160.00
1904,-3160.00
1905,-3160.00
1906,-3160.00
1907,-3160.00
1908,-3120.00
1909,-3160.00
1910,-3160.00
1911,-3160.00
1912,-3120.00
1913,-3160.00
1914,-3160.00
1915,-3160.00
1916,-3160.00
1917,-3160.00
1918,-3160.00
1919,-3160.00
1920,-3160.00
1921,-3160.00
1922,-3120.00
1923,-3160.00
1924,-3160.00
1925,-3160.00
1926,-3160.00
1927,-3160.00
1928,-3160.00
1929,-3120.00
1930,-3160.00
1931,-3160.00
1932,-3120.00
1933,-3160.00
1934,-3160.00
1935,-3120.00
1936,-3160.00
1937,-3160.00
1938,-3160.00
1939,-3160.00
1940,-3160.00
1941,-3160.00
1942,-3160.00
1943,-3120.00
1944,-3120.00
1945,-3160.00
1946,-3160.00
1947,-3160.00
1948,-2600.00
1949,-1880.00
1950,-1400.00
1951,-960.00
1952,-720.00
1953,-480.00
1954,-400.00
1955,-240.00
1956,-120.00
1957,-80.00
1958,-40.00
1959,-40.00
1960,0.00
1961,0.00
1962,0.00
1963,40.00
1964,0.00
1965,0.00
1966,120.00
1967,80.00
1968,80.00
1969,40.00
1970,40.00
1971,0.00
1972,80.00
1973,40.00
1974,120.00
1975,80.00
1976,40.00
1977,120.00
1978,120.00
1979,80.00
1980,0.00
1981,80.00
1982,40.00
1983,40.00
1984,40.00
1985,0.00
1986,0.00
1987,0.00
1988,40.00
1989,40.00
1990,120.00
1991,80.00
1992,40.00
1993,40.00
1994,120.00
1995,40.00
1996,120.00
1997,80.00
1998,120.00
1999,40.00
2000,80.00
2001,80.00
2002,0.00
2003,120.00
2004,80.00
2005,40.00
2006,80.00
2007,120.00
2008,40.00
2009,80.00
2010,-2320.00
2011,-3120.00
2012,-3160.00
2013,-3160.00
2014,-3160.00
2015,-3160.00
2016,-3160.00
2017,-3120.00
2018,-3160.00
2019,-3160.00
2020,-3200.00
2021,-3120.00
2022,-3120.00
2023,-3120.00
2024,-3160.00
2025,-3120.00
2026,-3120.00
2027,-3120.00
2028,-3160.00
2029,-3160.00
2030,-3160.00
2031,-3160.00
2032,-3120.00
2033,-3160.00
2034,-3120.00
2035,-3160.00
2036,-3160.00
2037,-3160.00
2038,-3160.00
2039,-3160.00
2040,-3160.00
2041,-3160.00
2042,-3160.00
2043,-3160.00
2044,-3160.00
2045,-3120.00
2046,-3160.00
2047,-3120.00
2048,-3160.00
2049,-3160.00
2050,-3160.00
2051,-3160.00
2052,-3120.00
2053,-3120.00
2054,-3160.00
2055,-3160.00
2056,-3160.00
2057,-3160.00
2058,-3120.00
2059,-3160.00
2060,-3160.00
2061,-3120.00
2062,-3120.00
2063,-3120.00
2064,-3160.00
2065,-3160.00
2066,-3160.00
2067,-3160.00
2068,-3120.00
2069,-3160.00
2070,-3120.00
2071,-3160.00
2072,-3160.00
2073,-2600.00
2074,-1840.00
2075,-1360.00
2076,-960.00
2077,-720.00
2078,-560.00
2079,-360.00
2080,-200.00
2081,-120.00
2082,-120.00
2083,-40.00
2084,0.00
2085,0.00
2086,0.00
2087,0.00
2088,0.00
2089,80.00
2090,160.00
2091,120.00
2092,0.00
2093,0.00
2094,0.00
2095,0.00
2096,80.00
2097,120.00
2098,160.00
2099,80.00
2100,0.00
2101,40.00
2102,120.00
2103,120.00
2104,0.00
2105,40.00
2106,0.00
2107,40.00
2108,160.00
2109,120.00
2110,80.00
2111,0.00
2112,80.00
2113,120.00
2114,80.00
2115,80.00
2116,40.00
2117,0.00
2118,80.00
2119,160.00
2120,120.00
2121,0.00
2122,80.00
2123,0.00
2124,160.00
2125,80.00
2126,120.00
2127,40.00
2128,0.00
2129,80.00
2130,80.00
2131,80.00
2132,0.00
2133,40.00
2134,120.00
2135,-2440.00
2136,-3160.00
2137,-3160.00
2138,-3120.00
2139,-3120.00
2140,-3160.00
2141,-3160.00
2142,-3160.00
2143,-3120.00
2144,-3160.00
2145,-3160.00
2146,-3120.00
2147,-3160.00
2148,-3160.00
2149,-3120.00
2150,-3160.00
2151,-3160.00
2152,-3160.00
2153,-3160.00
2154,-3120.00
2155,-3160.00
2156,-3160.00
2157,-3160.00
2158,-3160.00
2159,-3160.00
2160,-3160.00
2161,-3160.00
2162,-3160.00
2163,-3160.00
2164,-3120.00
2165,-3160.00
2166,-3160.00
2167,-3160.00
2168,-3160.00
2169,-3200.00
2170,-3240.00
2171,-3160.00
2172,-3200.00
2173,-3160.00
2174,-3160.00
2175,-3160.00
2176,-3160.00
2177,-3120.00
2178,-3160.00
2179,-3160.00
2180,-3160.00
2181,-3160.00
2182,-3160.00
2183,-3160.00
2184,-3120.00
2185,-3160.00
2186,-3160.00
2187,-3160.00
2188,-3160.00
2189,-3160.00
2190,-3160.00
2191,-3200.00
2192,-3160.00
2193,-3160.00
2194,-3160.00
2195,-3160.00
2196,-3160.00
2197,-3160.00
2198,-2600.00
2199,-1920.00
2200,-1400.00
2201,-1000.00
2202,-720.00
2203,-560.00
2204,-400.00
2205,-280.00
2206,-160.00
2207,-80.00
2208,-40.00
2209,-40.00
2210,0.00
2211,0.00
2212,40.00
2213,80.00
2214,0.00
2215,40.00
2216,0.00
2217,0.00
2218,80.00
2219,0.00
2220,0.00
2221,0.00
2222,0.00
2223,40.00
2224,0.00
2225,0.00
2226,80.00
2227,0.00
2228,0.00
2229,0.00
2230,40.00
2231,0.00
2232,40.00
2233,80.00
2234,40.00
2235,0.00
2236,0.00
2237,0.00
2238,80.00
2239,40.00
2240,80.00
2241,40.00
2242,0.00
2243,0.00
2244,40.00
2245,120.00
2246,80.00
2247,80.00
2248,80.00
2249,40.00
2250,80.00
2251,40.00
2252,0.00
2253,80.00
2254,120.00
2255,80.00
2256,40.00
2257,80.00
2258,0.00
2259,0.00
2260,-2200.00
2261,-3160.00
2262,-3160.00
2263,-3160.00
2264,-3160.00
2265,-3120.00
2266,-3120.00
2267,-3160.00
2268,-3160.00
2269,-3160.00
2270,-3160.00
2271,-3160.00
2272,-3160.00
2273,-3160.00
2274,-3200.00
2275,-3160.00
2276,-3160.00
2277,-3120.00
2278,-3120.00
2279,-3160.00
2280,-3120.00
2281,-3120.00
2282,-3160.00
2283,-3160.00
2284,-3160.00
2285,-3160.00
2286,-3160.00
2287,-3160.00
2288,-3160.00
2289,-3160.00
2290,-3160.00
2291,-3160.00
2292,-3160.00
2293,-3120.00
2294,-3160.00
2295,-3160.00
2296,-3160.00
2297,-3160.00
2298,-3160.00
2299,-3160.00
2300,-3160.00
2301,-3160.00
2302,-3160.00
2303,-3160.00
2304,-3160.00
2305,-3160.00
2306,-3160.00
2307,-3160.00
2308,-3160.00
2309,-3160.00
2310,-3160.00
2311,-3240.00
2312,-3160.00
2313,-3160.00
2314,-3160.00
2315,-3160.00
2316,-3160.00
2317,-3160.00
2318,-3160.00
2319,-3160.00
2320,-3160.00
2321,-3160.00
2322,-3160.00
2323,-2560.00
2324,-1920.00
2325,-1440.00
2326,-1040.00
2327,-680.00
2328,-440.00
2329,-360.00
2330,-280.00
2331,-160.00
2332,-80.00
2333,0.00
2334,0.00
2335,0.00
2336,-40.00
2337,0.00
2338,120.00
2339,160.00
2340,80.00
2341,0.00
2342,80.00
2343,120.00
2344,160.00
2345,160.00
2346,40.00
2347,120.00
2348,80.00
2349,120.00
2350,200.00
2351,80.00
2352,120.00
2353,80.00
2354,120.00
2355,160.00
2356,160.00
2357,80.00
2358,40.00
2359,120.00
2360,200.00
2361,160.00
2362,160.00
2363,120.00
2364,80.00
2365,280.00
2366,200.00
2367,40.00
2368,0.00
2369,0.00
2370,80.00
2371,160.00
2372,240.00
2373,200.00
2374,120.00
2375,120.00
2376,120.00
2377,200.00
2378,240.00
2379,160.00
2380,120.00
2381,80.00
2382,160.00
2383,240.00
2384,200.00
2385,-2400.00
2386,-3160.00
2387,-3120.00
2388,-3120.00
2389,-3120.00
2390,-3160.00
2391,-3160.00
2392,-3120.00
2393,-3120.00
2394,-3160.00
2395,-3160.00
2396,-3160.00
2397,-3160.00
2398,-3120.00
2399,-3160.00
2400,-3160.00
2401,-3160.00
2402,-3160.00
2403,-3160.00
2404,-3160.00
2405,-3160.00
2406,-3160.00
2407,-3160.00
2408,-3160.00
2409,-3120.00
2410,-3160.00
2411,-3120.00
2412,-3160.00
2413,-3160.00
2414,-3200.00
2415,-3160.00
2416,-3160.00
2417,-3160.00
2418,-3160.00
2419,-3120.00
2420,-3120.00
2421,-3160.00
2422,-3120.00
2423,-3160.00
2424,-3160.00
2425,-3160.00
2426,-3200.00
2427,-3160.00
2428,-3160.00
2429,-3160.00
2430,-3160.00
2431,-3160.00
2432,-3160.00
2433,-3120.00
2434,-3120.00
2435,-3120.00
2436,-3160.00
2437,-3160.00
2438,-3160.00
2439,-3160.00
2440,-3160.00
2441,-3160.00
2442,-3120.00
2443,-3160.00
2444,-3160.00
2445,-3160.00
2446,-2560.00
2447,-1840.00
2448,-1320.00
2449,-920.00
2450,-680.00
2451,-440.00
2452,-280.00
2453,-200.00
2454,-80.00
2455,-40.00
2456,0.00
2457,0.00
2458,0.00
2459,80.00
2460,120.00
2461,80.00
2462,160.00
2463,160.00
2464,120.00
2465,120.00
2466,160.00
2467,160.00
2468,160.00
2469,160.00
2470,160.00
2471,160.00
2472,160.00
2473,200.00
2474,200.00
2475,160.00
2476,200.00
2477,200.00
2478,160.00
2479,160.00
2480,200.00
2481,200.00
2482,160.00
2483,200.00
2484,160.00
2485,160.00
2486,160.00
2487,160.00
2488,200.00
2489,200.00
2490,200.00
2491,200.00
2492,200.00
2493,160.00
2494,160.00
2495,160.00
2496,160.00
2497,200.00
2498,200.00
2499,200.00
2500,160.00
2501,160.00
2502,120.00
2503,160.00
2504,200.00
2505,200.00
2506,200.00
2507,200.00
2508,-2400.00
2509,-3160.00
2510,-3160.00
2511,-3120.00
2512,-3160.00
2513,-3120.00
2514,-3120.00
2515,-3120.00
2516,-3160.00
2517,-3120.00
2518,-3160.00
2519,-3120.00
2520,-3160.00
2521,-3160.00
2522,-3120.00
2523,-3120.00
2524,-3160.00
2525,-3200.00
2526,-3160.00
2527,-3160.00
2528,-3160.00
2529,-3160.00
2530,-3160.00
2531,-3160.00
2532,-3160.00
2533,-3160.00
2534,-3160.00
2535,-3160.00
2536,-3160.00
2537,-3160.00
2538,-3200.00
2539,-3160.00
2540,-3120.00
2541,-3160.00
2542,-3160.00
2543,-3120.00
2544,-3160.00
2545,-3160.00
2546,-3160.00
2547,-3160.00
2548,-3160.00
2549,-3160.00
2550,-3120.00
2551,-3160.00
2552,-3120.00
2553,-3160.00
2554,-3160.00
2555,-3160.00
2556,-3160.00
2557,-3120.00
2558,-3120.00
2559,-3120.00
2560,-3160.00
2561,-3120.00
2562,-3160.00
2563,-3120.00
2564,-3160.00
2565,-3160.00
2566,-3160.00
2567,-3160.00
2568,-3160.00
2569,-3160.00
2570,-3120.00
2571,-2520.00
2572,-1840.00
2573,-1400.00
2574,-1040.00
2575,-680.00
2576,-400.00
2577,-280.00
2578,-240.00
2579,-160.00
2580,-40.00
2581,-40.00
2582,40.00
2583,0.00
2584,0.00
2585,0.00
2586,80.00
2587,160.00
2588,160.00
2589,120.00
2590,80.00
2591,160.00
2592,200.00
2593,200.00
2594,120.00
2595,120.00
2596,80.00
2597,160.00
2598,200.00
2599,200.00
2600,160.00
2601,80.00
2602,120.00
2603,200.00
2604,200.00
2605,160.00
2606,120.00
2607,160.00
2608,200.00
2609,200.00
2610,160.00
2611,160.00
2612,120.00
2613,280.00
2614,240.00
2615,40.00
2616,0.00
2617,40.00
2618,120.00
2619,160.00
2620,200.00
2621,200.00
2622,160.00
2623,120.00
2624,120.00
2625,160.00
2626,240.00
2627,200.00
2628,120.00
2629,80.00
2630,160.00
2631,200.00
2632,200.00
2633,-2600.00
2634,-3120.00
2635,-3160.00
2636,-3120.00
2637,-3160.00
2638,-3200.00
2639,-3120.00
2640,-3160.00
2641,-3120.00
2642,-3160.00
2643,-3120.00
2644,-3160.00
2645,-3160.00
2646,-3200.00
2647,-3160.00
2648,-3120.00
2649,-3120.00
2650,-3120.00
2651,-3160.00
2652,-3160.00
2653,-3160.00
2654,-3120.00
2655,-3160.00
2656,-3160.00
2657,-3160.00
2658,-3160.00
2659,-3160.00
2660,-3160.00
2661,-3120.00
2662,-3160.00
2663,-3160.00
2664,-3160.00
2665,-3160.00
2666,-3160.00
2667,-3160.00
2668,-3160.00
2669,-3120.00
2670,-3160.00
2671,-3160.00
2672,-3160.00
2673,-3160.00
2674,-3120.00
2675,-3160.00
2676,-3160.00
2677,-3160.00
2678,-3160.00
2679,-3160.00
2680,-3160.00
2681,-3160.00
2682,-3160.00
2683,-3160.00
2684,-3160.00
2685,-3160.00
2686,-3120.00
2687,-3160.00
2688,-3160.00
2689,-3160.00
2690,-3120.00
2691,-3160.00
2692,-3160.00
2693,-3160.00
2694,-3160.00
2695,-3160.00
2696,-2560.00
2697,-1840.00
2698,-1320.00
2699,-920.00
2700,-680.00
2701,-480.00
2702,-280.00
2703,-160.00
2704,-80.00
2705,-80.00
2706,-40.00
2707,0.00
2708,0.00
2709,80.00
2710,0.00
2711,0.00
2712,40.00
2713,160.00
2714,120.00
2715,160.00
2716,40.00
2717,80.00
2718,120.00
2719,120.00
2720,120.00
2721,40.00
2722,80.00
2723,120.00
2724,120.00
2725,160.00
2726,120.00
2727,80.00
2728,80.00
2729,80.00
2730,160.00
2731,160.00
2732,120.00
2733,80.00
2734,120.00
2735,120.00
2736,160.00
2737,120.00
2738,160.00
2739,120.00
2740,120.00
2741,120.00
2742,120.00
2743,80.00
2744,120.00
2745,160.00
2746,160.00
2747,160.00
2748,120.00
2749,80.00
2750,120.00
2751,160.00
2752,160.00
2753,120.00
2754,160.00
2755,120.00
2756,120.00
2757,160.00
2758,-2720.00
2759,-3120.00
2760,-3120.00
2761,-3160.00
2762,-3160.00
2763,-3160.00
2764,-3160.00
2765,-3160.00
2766,-3160.00
2767,-3160.00
2768,-3120.00
2769,-3120.00
2770,-3160.00
2771,-3160.00
2772,-3160.00
2773,-3160.00
2774,-3120.00
2775,-3160.00
2776,-3160.00
2777,-3160.00
2778,-3160.00
2779,-3120.00
2780,-3120.00
2781,-3160.00
2782,-3160.00
2783,-3160.00
2784,-3160.00
2785,-3120.00
2786,-3120.00
2787,-3120.00
2788,-3160.00
2789,-3120.00
2790,-3160.00
2791,-3160.00
2792,-3160.00
2793,-3160.00
2794,-3160.00
2795,-3160.00
2796,-3160.00
2797,-3200.00
2798,-3160.00
2799,-3120.00
2800,-3160.00
2801,-3160.00
2802,-3160.00
2803,-3160.00
2804,-3160.00
2805,-3160.00
2806,-3200.00
2807,-3160.00
2808,-3200.00
2809,-3200.00
2810,-3160.00
2811,-3160.00
2812,-3160.00
2813,-3160.00
2814,-3160.00
2815,-3200.00
2816,-3160.00
2817,-3160.00
2818,-3160.00
2819,-3120.00
2820,-3120.00
2821,-2560.00
2822,-1840.00
2823,-1360.00
2824,-960.00
2825,-680.00
2826,-480.00
2827,-320.00
2828,-200.00
2829,-120.00
2830,-40.00
2831,0.00
2832,0.00
2833,0.00
2834,80.00
2835,40.00
2836,120.00
2837,80.00
2838,80.00
2839,40.00
2840,80.00
2841,80.00
2842,120.00
2843,160.00
2844,120.00
2845,40.00
2846,120.00
2847,40.00
2848,80.00
2849,120.00
2850,120.00
2851,120.00
2852,80.00
2853,120.00
2854,120.00
2855,160.00
2856,80.00
2857,120.00
2858,80.00
2859,120.00
2860,80.00
2861,120.00
2862,80.00
2863,200.00
2864,200.00
2865,120.00
2866,0.00
2867,40.00
2868,80.00
2869,120.00
2870,120.00
2871,200.00
2872,160.00
2873,80.00
2874,120.00
2875,160.00
2876,160.00
2877,200.00
2878,80.00
2879,40.00
2880,120.00
2881,120.00
2882,200.00
2883,-2720.00
2884,-3160.00
2885,-3160.00
2886,-3120.00
2887,-3120.00
2888,-3120.00
2889,-3120.00
2890,-3160.00
2891,-3120.00
2892,-3160.00
2893,-3160.00
2894,-3120.00
2895,-3160.00
2896,-3160.00
2897,-3160.00
2898,-3120.00
2899,-3160.00
2900,-3160.00
2901,-3160.00
2902,-3160.00
2903,-3160.00
2904,-3160.00
2905,-3200.00
2906,-3160.00
2907,-3160.00
2908,-3120.00
2909,-3120.00
2910,-3120.00
2911,-3160.00
2912,-3160.00
2913,-3160.00
2914,-3160.00
2915,-3160.00
2916,-3160.00
2917,-3240.00
2918,-3200.00
2919,-3160.00
2920,-3120.00
2921,-3120.00
2922,-3160.00
2923,-3160.00
2924,-3200.00
2925,-3200.00
2926,-3160.00
2927,-3120.00
2928,-3160.00
2929,-3160.00
2930,-3200.00
2931,-3160.00
2932,-3160.00
2933,-3160.00
2934,-3120.00
2935,-3120.00
2936,-3160.00
2937,-3160.00
2938,-3200.00
2939,-3120.00
2940,-3160.00
2941,-3160.00
2942,-3160.00
2943,-3160.00
2944,-3120.00
2945,-3160.00
2946,-2560.00
2947,-1840.00
2948,-1320.00
2949,-960.00
2950,-680.00
2951,-520.00
2952,-320.00
2953,-160.00
2954,-80.00
2955,-80.00
2956,-40.00
2957,-40.00
2958,0.00
2959,80.00
2960,0.00
2961,0.00
2962,0.00
2963,80.00
2964,160.00
2965,120.00
2966,0.00
2967,0.00
2968,80.00
2969,80.00
2970,120.00
2971,200.00
2972,40.00
2973,0.00
2974,0.00
2975,120.00
2976,120.00
2977,120.00
2978,0.00
2979,0.00
2980,120.00
2981,120.00
2982,160.00
2983,80.00
2984,40.00
2985,40.00
2986,120.00
2987,120.00
2988,120.00
2989,0.00
2990,0.00
2991,40.00
2992,80.00
2993,160.00
2994,80.00
2995,80.00
2996,0.00
2997,80.00
2998,120.00
2999,80.00
3000,80.00
3001,80.00
3002,120.00
3003,40.00
3004,40.00
3005,80.00
3006,-2680.00
3007,-3160.00
3008,-3120.00
3009,-3120.00
3010,-3160.00
3011,-3160.00
3012,-3120.00
3013,-3160.00
3014,-3120.00
3015,-3120.00
3016,-3160.00
3017,-3120.00
3018,-3160.00
3019,-3160.00
3020,-3160.00
3021,-3160.00
3022,-3120.00
3023,-3120.00
3024,-3160.00
3025,-3120.00
3026,-3160.00
3027,-3160.00
3028,-3160.00
3029,-3120.00
3030,-3160.00
3031,-3160.00
3032,-3160.00
3033,-3160.00
3034,-3160.00
3035,-3120.00
3036,-3160.00
3037,-3160.00
3038,-3160.00
3039,-3120.00
3040,-3200.00
3041,-3160.00
3042,-3160.00
3043,-3200.00
3044,-3120.00
3045,-3160.00
3046,-3160.00
3047,-3160.00
3048,-3160.00
3049,-3120.00
3050,-3160.00
3051,-3160.00
3052,-3160.00
3053,-3200.00
3054,-3160.00
3055,-3120.00
3056,-3120.00
3057,-3160.00
3058,-3160.00
3059,-3120.00
3060,-3160.00
3061,-3160.00
3062,-3160.00
3063,-3240.00
3064,-3160.00
3065,-3160.00
3066,-3160.00
3067,-3160.00
3068,-3160.00
3069,-2520.00
3070,-1840.00
3071,-1400.00
3072,-1040.00
3073,-720.00
3074,-480.00
3075,-320.00
3076,-280.00
3077,-160.00
3078,-120.00
3079,0.00
3080,-40.00
3081,0.00
3082,0.00
3083,0.00
3084,0.00
3085,120.00
3086,80.00
3087,0.00
3088,0.00
3089,0.00
3090,120.00
3091,120.00
3092,120.00
3093,40.00
3094,40.00
3095,120.00
3096,80.00
3097,40.00
3098,40.00
3099,0.00
3100,80.00
3101,80.00
3102,120.00
3103,0.00
3104,80.00
3105,40.00
3106,80.00
3107,160.00
3108,40.00
3109,0.00
3110,80.00
3111,80.00
3112,120.00
3113,40.00
3114,0.00
3115,80.00
3116,40.00
3117,120.00
3118,80.00
3119,80.00
3120,80.00
3121,80.00
3122,80.00
3123,120.00
3124,120.00
3125,120.00
3126,40.00
3127,80.00
3128,160.00
3129,120.00
3130,120.00
3131,-2760.00
3132,-3120.00
3133,-3160.00
3134,-3160.00
3135,-3160.00
3136,-3160.00
3137,-3160.00
3138,-3120.00
3139,-3120.00
3140,-3120.00
3141,-3120.00
3142,-3160.00
3143,-3120.00
3144,-3120.00
3145,-3120.00
3146,-3160.00
3147,-3120.00
3148,-3160.00
3149,-3120.00
3150,-3160.00
3151,-3160.00
3152,-3160.00
3153,-3120.00
3154,-3120.00
3155,-3160.00
3156,-3120.00
3157,-3160.00
3158,-3120.00
3159,-3160.00
3160,-3160.00
3161,-3120.00
3162,-3120.00
3163,-3160.00
3164,-3160.00
3165,-3120.00
3166,-3120.00
3167,-3120.00
3168,-3200.00
3169,-3160.00
3170,-3160.00
3171,-3160.00
3172,-3120.00
3173,-3160.00
3174,-3160.00
3175,-3160.00
3176,-3160.00
3177,-3160.00
3178,-3160.00
3179,-3120.00
3180,-3120.00
3181,-3120.00
3182,-3160.00
3183,-3160.00
3184,-3120.00
3185,-3160.00
3186,-3120.00
3187,-3120.00
3188,-3120.00
3189,-3160.00
3190,-3160.00
3191,-3120.00
3192,-3160.00
3193,-3160.00
3194,-2560.00
3195,-1840.00
3196,-1360.00
3197,-960.00
3198,-680.00
3199,-480.00
3200,-360.00
3201,-240.00
3202,-120.00
3203,-80.00
3204,-40.00
3205,0.00
3206,0.00
3207,0.00
3208,0.00
3209,0.00
3210,80.00
3211,0.00
3212,80.00
3213,40.00
3214,40.00
3215,40.00
3216,0.00
3217,40.00
3218,80.00
3219,80.00
3220,0.00
3221,40.00
3222,40.00
3223,40.00
3224,80.00
3225,40.00
3226,80.00
3227,120.00
3228,120.00
3229,120.00
3230,80.00
3231,40.00
3232,40.00
3233,0.00
3234,80.00
3235,80.00
3236,40.00
3237,40.00
3238,120.00
3239,120.00
3240,40.00
3241,80.00
3242,40.00
3243,80.00
3244,120.00
3245,120.00
3246,80.00
3247,80.00
3248,80.00
3249,40.00
3250,120.00
3251,80.00
3252,120.00
3253,40.00
3254,40.00
3255,80.00
3256,-2680.00
3257,-3120.00
3258,-3120.00
3259,-3160.00
3260,-3120.00
3261,-3160.00
3262,-3160.00
3263,-3120.00
3264,-3120.00
3265,-3120.00
3266,-3200.00
3267,-3160.00
3268,-3160.00
3269,-3160.00
3270,-3160.00
3271,-3160.00
3272,-3160.00
3273,-3160.00
3274,-3120.00
3275,-3160.00
3276,-3160.00
3277,-3160.00
3278,-3120.00
3279,-3160.00
3280,-3120.00
3281,-3160.00
3282,-3160.00
3283,-3160.00
3284,-3160.00
3285,-3160.00
3286,-3160.00
3287,-3160.00
3288,-3120.00
3289,-3160.00
3290,-3120.00
3291,-3160.00
3292,-3160.00
3293,-3200.00
3294,-3160.00
3295,-3160.00
3296,-3160.00
3297,-3160.00
3298,-3160.00
3299,-3160.00
3300,-3120.00
3301,-3120.00
3302,-3160.00
3303,-3120.00
3304,-3160.00
3305,-3200.00
3306,-3160.00
3307,-3160.00
3308,-3160.00
3309,-3120.00
3310,-3120.00
3311,-3160.00
3312,-3160.00
3313,-3120.00
3314,-3160.00
3315,-3160.00
3316,-3160.00
3317,-3160.00
3318,-3160.00
3319,-2520.00
3320,-1840.00
3321,-1400.00
3322,-1080.00
3323,-720.00
3324,-480.00
3325,-320.00
3326,-240.00
3327,-160.00
3328,-160.00
3329,-40.00
3330,0.00
3331,0.00
3332,0.00
3333,-80.00
3334,0.00
3335,40.00
3336,80.00
3337,0.00
3338,0.00
3339,0.00
3340,40.00
3341,120.00
3342,0.00
3343,0.00
3344,0.00
3345,0.00
3346,120.00
3347,80.00
3348,0.00
3349,0.00
3350,80.00
3351,40.00
3352,120.00
3353,80.00
3354,0.00
3355,40.00
3356,80.00
3357,120.00
3358,120.00
3359,0.00
3360,0.00
3361,40.00
3362,160.00
3363,120.00
3364,0.00
3365,0.00
3366,0.00
3367,0.00
3368,40.00
3369,80.00
3370,80.00
3371,0.00
3372,80.00
3373,0.00
3374,120.00
3375,80.00
3376,80.00
3377,0.00
3378,0.00
3379,120.00
3380,160.00
3381,-2760.00
3382,-3160.00
3383,-3120.00
3384,-3120.00
3385,-3120.00
3386,-3160.00
3387,-3160.00
3388,-3160.00
3389,-3160.00
3390,-3160.00
3391,-3160.00
3392,-3160.00
3393,-3120.00
3394,-3160.00
3395,-3160.00
3396,-3160.00
3397,-3160.00
3398,-3160.00
3399,-3160.00
3400,-3160.00
3401,-3160.00
3402,-3120.00
3403,-3160.00
3404,-3160.00
3405,-3160.00
3406,-3120.00
3407,-3120.00
3408,-3160.00
3409,-3160.00
3410,-3200.00
3411,-3120.00
3412,-3160.00
3413,-3160.00
3414,-3120.00
3415,-3160.00
3416,-3160.00
3417,-3160.00
3418,-3160.00
3419,-3160.00
3420,-3160.00
3421,-3120.00
3422,-3200.00
3423,-3160.00
3424,-3120.00
3425,-3160.00
3426,-3120.00
3427,-3160.00
3428,-3160.00
3429,-3160.00
3430,-3160.00
3431,-3160.00
3432,-3160.00
3433,-3160.00
3434,-3160.00
3435,-3160.00
3436,-3120.00
3437,-3160.00
3438,-3160.00
3439,-3160.00
3440,-3160.00
3441,-3160.00
3442,-3160.00
3443,-3160.00
3444,-2560.00
3445,-1840.00
3446,-1320.00
3447,-960.00
3448,-760.00
3449,-560.00
3450,-400.00
3451,-200.00
3452,-200.00
3453,-80.00
3454,-80.00
3455,-40.00
3456,0.00
3457,0.00
3458,40.00
3459,0.00
3460,0.00
3461,0.00
3462,80.00
3463,80.00
3464,0.00
3465,0.00
3466,0.00
3467,0.00
3468,40.00
3469,160.00
3470,80.00
3471,0.00
3472,0.00
3473,40.00
3474,40.00
3475,40.00
3476,80.00
3477,0.00
3478,0.00
3479,80.00
3480,160.00
3481,120.00
3482,0.00
3483,80.00
3484,40.00
3485,80.00
3486,80.00
3487,80.00
3488,0.00
3489,80.00
3490,120.00
3491,120.00
3492,120.00
3493,40.00
3494,80.00
3495,80.00
3496,120.00
3497,120.00
3498,120.00
3499,120.00
3500,80.00
3501,120.00
3502,160.00
3503,40.00
3504,80.00
3505,40.00
3506,-2760.00
3507,-3120.00
3508,-3160.00
3509,-3120.00
3510,-3120.00
3511,-3200.00
3512,-3120.00
3513,-3160.00
3514,-3120.00
3515,-3120.00
3516,-3160.00
3517,-3120.00
3518,-3120.00
3519,-3120.00
3520,-3160.00
3521,-3120.00
3522,-3120.00
3523,-3200.00
3524,-3120.00
3525,-3160.00
3526,-3120.00
3527,-3160.00
3528,-3160.00
3529,-3160.00
3530,-3120.00
3531,-3160.00
3532,-3200.00
3533,-3120.00
3534,-3160.00
3535,-3160.00
3536,-3120.00
3537,-3160.00
3538,-3120.00
3539,-3160.00
3540,-3160.00
3541,-3200.00
3542,-3160.00
3543,-3120.00
3544,-3160.00
3545,-3120.00
3546,-3160.00
3547,-3160.00
3548,-3120.00
3549,-3120.00
3550,-3160.00
3551,-3120.00
3552,-3160.00
3553,-3120.00
3554,-3160.00
3555,-3160.00
3556,-3200.00
3557,-3160.00
3558,-3120.00
3559,-3120.00
3560,-3160.00
3561,-3160.00
3562,-3160.00
3563,-3160.00
3564,-3120.00
3565,-3160.00
3566,-3160.00
3567,-3160.00
3568,-3160.00
3569,-2520.00
3570,-1840.00
3571,-1360.00
3572,-960.00
3573,-680.00
3574,-400.00
3575,-280.00
3576,-160.00
3577,-120.00
3578,-40.00
3579,0.00
3580,120.00
3581,120.00
3582,80.00
3583,0.00
3584,120.00
3585,200.00
3586,200.00
3587,160.00
3588,40.00
3589,120.00
3590,200.00
3591,240.00
3592,200.00
3593,160.00
3594,120.00
3595,200.00
3596,240.00
3597,200.00
3598,160.00
3599,160.00
3600,200.00
3601,160.00
3602,160.00
3603,160.00
3604,200.00
3605,200.00
3606,200.00
3607,200.00
3608,160.00
3609,200.00
3610,240.00
3611,200.00
3612,200.00
3613,160.00
3614,160.00
3615,200.00
3616,200.00
3617,200.00
3618,160.00
3619,200.00
3620,200.00
3621,240.00
3622,240.00
3623,200.00
3624,160.00
3625,200.00
3626,240.00
3627,200.00
3628,200.00
3629,-2720.00
3630,-3120.00
3631,-3120.00
3632,-3120.00
3633,-3120.00
3634,-3200.00
3635,-3120.00
3636,-3160.00
3637,-3160.00
3638,-3120.00
3639,-3120.00
3640,-3160.00
3641,-3160.00
3642,-3160.00
3643,-3160.00
3644,-3160.00
3645,-3120.00
3646,-3160.00
3647,-3160.00
3648,-3160.00
3649,-3160.00
3650,-3120.00
3651,-3120.00
3652,-3160.00
3653,-3160.00
3654,-3160.00
3655,-3120.00
3656,-3160.00
3657,-3120.00
3658,-3120.00
3659,-3160.00
3660,-3200.00
3661,-3120.00
3662,-3120.00
3663,-3160.00
3664,-3160.00
3665,-3160.00
3666,-3160.00
3667,-3160.00
3668,-3160.00
3669,-3160.00
3670,-3160.00
3671,-3200.00
3672,-3160.00
3673,-3160.00
3674,-3160.00
3675,-3160.00
3676,-3120.00
3677,-3160.00
3678,-3160.00
3679,-3160.00
3680,-3120.00
3681,-3160.00
3682,-3160.00
3683,-3160.00
3684,-3160.00
3685,-3160.00
3686,-3160.00
3687,-3200.00
3688,-3160.00
3689,-3160.00
3690,-3120.00
3691,-3160.00
3692,-2560.00
3693,-1840.00
3694,-1320.00
3695,-920.00
3696,-680.00
3697,-440.00
3698,-280.00
3699,-160.00
3700,-80.00
3701,0.00
3702,0.00
3703,80.00
3704,0.00
3705,120.00
3706,160.00
3707,160.00
3708,120.00
3709,120.00
3710,40.00
3711,80.00
3712,160.00
3713,160.00
3714,160.00
3715,160.00
3716,160.00
3717,160.00
3718,160.00
3719,200.00
3720,160.00
3721,160.00
3722,160.00
3723,160.00
3724,200.00
3725,200.00
3726,120.00
3727,200.00
3728,200.00
3729,160.00
3730,160.00
3731,200.00
3732,200.00
3733,160.00
3734,160.00
3735,160.00
3736,160.00
3737,120.00
3738,160.00
3739,160.00
3740,120.00
3741,160.00
3742,200.00
3743,200.00
3744,200.00
3745,160.00
3746,160.00
3747,160.00
3748,200.00
3749,160.00
3750,160.00
3751,160.00
3752,160.00
3753,200.00
3754,-2800.00
3755,-3160.00
3756,-3120.00
3757,-3160.00
3758,-3120.00
3759,-3160.00
3760,-3120.00
3761,-3160.00
3762,-3160.00
3763,-3160.00
3764,-3200.00
3765,-3160.00
3766,-3120.00
3767,-3160.00
3768,-3120.00
3769,-3160.00
3770,-3120.00
3771,-3160.00
3772,-3160.00
3773,-3120.00
3774,-3120.00
3775,-3160.00
3776,-3160.00
3777,-3200.00
3778,-3120.00
3779,-3120.00
3780,-3160.00
3781,-3160.00
3782,-3160.00
3783,-3160.00
3784,-3160.00
3785,-3160.00
3786,-3160.00
3787,-3160.00
3788,-3160.00
3789,-3120.00
3790,-3160.00
3791,-3160.00
3792,-3160.00
3793,-3120.00
3794,-3120.00
3795,-3160.00
3796,-3160.00
3797,-3120.00
3798,-3120.00
3799,-3160.00
3800,-3120.00
3801,-3120.00
3802,-3120.00
3803,-3120.00
3804,-3160.00
3805,-3120.00
3806,-3120.00
3807,-3160.00
3808,-3120.00
3809,-3120.00
3810,-3160.00
3811,-3160.00
3812,-3160.00
3813,-3200.00
3814,-3160.00
3815,-3160.00
3816,-3160.00
3817,-2480.00
3818,-1760.00
3819,-1360.00
3820,-960.00
3821,-680.00
3822,-440.00
3823,-240.00
3824,-160.00
3825,-200.00
3826,-80.00
3827,0.00
3828,80.00
3829,40.00
3830,0.00
3831,80.00
3832,40.00
3833,160.00
3834,160.00
3835,120.00
3836,40.00
3837,80.00
3838,120.00
3839,200.00
3840,160.00
3841,120.00
3842,120.00
3843,120.00
3844,200.00
3845,200.00
3846,120.00
3847,40.00
3848,80.00
3849,120.00
3850,200.00
3851,160.00
3852,80.00
3853,80.00
3854,160.00
3855,200.00
3856,200.00
3857,160.00
3858,120.00
3859,120.00
3860,160.00
3861,200.00
3862,40.00
3863,80.00
3864,80.00
3865,80.00
3866,160.00
3867,240.00
3868,200.00
3869,80.00
3870,80.00
3871,120.00
3872,200.00
3873,240.00
3874,160.00
3875,80.00
3876,40.00
3877,160.00
3878,200.00
3879,-2920.00
3880,-3160.00
3881,-3120.00
3882,-3120.00
3883,-3160.00
3884,-3120.00
3885,-3160.00
3886,-3120.00
3887,-3160.00
3888,-3160.00
3889,-3120.00
3890,-3120.00
3891,-3160.00
3892,-3160.00
3893,-3160.00
3894,-3160.00
3895,-3160.00
3896,-3160.00
3897,-3120.00
3898,-3120.00
3899,-3160.00
3900,-3160.00
3901,-3160.00
3902,-3160.00
3903,-3160.00
3904,-3120.00
3905,-3160.00
3906,-3160.00
3907,-3160.00
3908,-3160.00
3909,-3160.00
3910,-3160.00
3911,-3120.00
3912,-3160.00
3913,-3160.00
3914,-3200.00
3915,-3160.00
3916,-3120.00
3917,-3120.00
3918,-3120.00
3919,-3160.00
3920,-3160.00
3921,-3160.00
3922,-3160.00
3923,-3120.00
3924,-3160.00
3925,-3160.00
3926,-3160.00
3927,-3200.00
3928,-3120.00
3929,-3120.00
3930,-3120.00
3931,-3160.00
3932,-3120.00
3933,-3160.00
3934,-3160.00
3935,-3160.00
3936,-3160.00
3937,-3120.00
3938,-3160.00
3939,-3160.00
3940,-3160.00
3941,-3120.00
3942,-2520.00
3943,-1840.00
3944,-1320.00
3945,-960.00
3946,-680.00
3947,-480.00
3948,-280.00
3949,-200.00
3950,-160.00
3951,-80.00
3952,0.00
3953,0.00
3954,0.00
3955,40.00
3956,0.00
3957,80.00
3958,80.00
3959,120.00
3960,40.00
3961,160.00
3962,120.00
3963,120.00
3964,120.00
3965,80.00
3966,160.00
3967,80.00
3968,160.00
3969,120.00
3970,120.00
3971,120.00
3972,120.00
3973,80.00
3974,160.00
3975,80.00
3976,120.00
3977,120.00
3978,160.00
3979,120.00
3980,120.00
3981,160.00
3982,120.00
3983,120.00
3984,120.00
3985,80.00
3986,120.00
3987,80.00
3988,80.00
3989,120.00
3990,120.00
3991,120.00
3992,80.00
3993,40.00
3994,120.00
3995,120.00
3996,80.00
3997,160.00
3998,80.00
3999,120.00
