Channel			  :,CH2
Frequency			  :,F=  ?
Period 			  :,T=  ?
PK-PK				  :,Vpp=3.400V
Average			  :,V=-1.569V
Vertical pos		  :,-760.00mV
Probe attenuation	  :,1X
Voltage per ADC value:,40.00mV
Time interval		  :,0.08uS

index,CH2_Voltage(mV)
0,120.00
1,120.00
2,120.00
3,120.00
4,120.00
5,120.00
6,120.00
7,120.00
8,120.00
9,120.00
10,120.00
11,120.00
12,120.00
13,80.00
14,120.00
15,120.00
16,120.00
17,120.00
18,40.00
19,80.00
20,120.00
21,120.00
22,80.00
23,80.00
24,80.00
25,120.00
26,120.00
27,120.00
28,120.00
29,120.00
30,120.00
31,120.00
32,120.00
33,120.00
34,120.00
35,120.00
36,120.00
37,160.00
38,120.00
39,80.00
40,120.00
41,80.00
42,120.00
43,120.00
44,120.00
45,80.00
46,120.00
47,80.00
48,120.00
49,120.00
50,120.00
51,80.00
52,80.00
53,80.00
54,120.00
55,120.00
56,120.00
57,120.00
58,120.00
59,120.00
60,120.00
61,120.00
62,120.00
63,80.00
64,120.00
65,120.00
66,120.00
67,120.00
68,120.00
69,80.00
70,120.00
71,120.00
72,80.00
73,120.00
74,120.00
75,120.00
76,120.00
77,120.00
78,120.00
79,80.00
80,120.00
81,120.00
82,120.00
83,80.00
84,120.00
85,120.00
86,200.00
87,120.00
88,120.00
89,80.00
90,80.00
91,120.00
92,120.00
93,120.00
94,120.00
95,80.00
96,80.00
97,80.00
98,120.00
99,120.00
100,120.00
101,80.00
102,80.00
103,120.00
104,120.00
105,120.00
106,120.00
107,80.00
108,120.00
109,120.00
110,120.00
111,120.00
112,80.00
113,80.00
114,120.00
115,120.00
116,120.00
117,120.00
118,120.00
119,120.00
120,120.00
121,120.00
122,120.00
123,120.00
124,80.00
125,120.00
126,120.00
127,120.00
128,120.00
129,80.00
130,120.00
131,120.00
132,120.00
133,120.00
134,80.00
135,80.00
136,120.00
137,120.00
138,80.00
139,80.00
140,80.00
141,80.00
142,120.00
143,80.00
144,120.00
145,120.00
146,80.00
147,80.00
148,120.00
149,120.00
150,120.00
151,120.00
152,80.00
153,80.00
154,120.00
155,120.00
156,120.00
157,80.00
158,80.00
159,120.00
160,120.00
161,40.00
162,80.00
163,80.00
164,120.00
165,120.00
166,80.00
167,80.00
168,80.00
169,120.00
170,120.00
171,120.00
172,120.00
173,120.00
174,120.00
175,120.00
176,120.00
177,120.00
178,120.00
179,80.00
180,120.00
181,120.00
182,120.00
183,120.00
184,80.00
185,80.00
186,120.00
187,120.00
188,120.00
189,80.00
190,80.00
191,120.00
192,120.00
193,120.00
194,80.00
195,120.00
196,120.00
197,80.00
198,120.00
199,80.00
200,80.00
201,80.00
202,120.00
203,120.00
204,120.00
205,80.00
206,120.00
207,120.00
208,120.00
209,120.00
210,120.00
211,120.00
212,80.00
213,120.00
214,120.00
215,120.00
216,120.00
217,80.00
218,120.00
219,120.00
220,120.00
221,120.00
222,120.00
223,120.00
224,120.00
225,120.00
226,80.00
227,80.00
228,120.00
229,120.00
230,80.00
231,120.00
232,120.00
233,120.00
234,120.00
235,120.00
236,80.00
237,80.00
238,120.00
239,80.00
240,80.00
241,120.00
242,120.00
243,120.00
244,80.00
245,120.00
246,120.00
247,120.00
248,80.00
249,120.00
250,120.00
251,120.00
252,120.00
253,80.00
254,80.00
255,120.00
256,120.00
257,120.00
258,80.00
259,80.00
260,120.00
261,120.00
262,80.00
263,80.00
264,80.00
265,80.00
266,120.00
267,80.00
268,120.00
269,80.00
270,120.00
271,120.00
272,120.00
273,120.00
274,120.00
275,80.00
276,80.00
277,80.00
278,120.00
279,120.00
280,120.00
281,80.00
282,80.00
283,120.00
284,120.00
285,120.00
286,80.00
287,80.00
288,120.00
289,120.00
290,120.00
291,80.00
292,120.00
293,120.00
294,120.00
295,120.00
296,80.00
297,120.00
298,120.00
299,120.00
300,120.00
301,120.00
302,80.00
303,80.00
304,120.00
305,120.00
306,120.00
307,80.00
308,80.00
309,80.00
310,120.00
311,80.00
312,80.00
313,40.00
314,80.00
315,80.00
316,120.00
317,120.00
318,120.00
319,80.00
320,80.00
321,120.00
322,120.00
323,120.00
324,120.00
325,80.00
326,80.00
327,120.00
328,120.00
329,120.00
330,80.00
331,80.00
332,80.00
333,120.00
334,120.00
335,120.00
336,40.00
337,80.00
338,120.00
339,120.00
340,120.00
341,80.00
342,80.00
343,120.00
344,120.00
345,120.00
346,80.00
347,80.00
348,120.00
349,120.00
350,80.00
351,80.00
352,80.00
353,80.00
354,120.00
355,80.00
356,80.00
357,80.00
358,120.00
359,120.00
360,80.00
361,120.00
362,120.00
363,80.00
364,80.00
365,80.00
366,80.00
367,120.00
368,80.00
369,80.00
370,120.00
371,120.00
372,80.00
373,80.00
374,80.00
375,80.00
376,120.00
377,80.00
378,80.00
379,80.00
380,120.00
381,80.00
382,120.00
383,80.00
384,80.00
385,80.00
386,120.00
387,80.00
388,80.00
389,80.00
390,80.00
391,80.00
392,80.00
393,120.00
394,120.00
395,80.00
396,80.00
397,80.00
398,120.00
399,80.00
400,120.00
401,80.00
402,80.00
403,120.00
404,80.00
405,80.00
406,80.00
407,80.00
408,120.00
409,80.00
410,80.00
411,80.00
412,80.00
413,120.00
414,80.00
415,80.00
416,80.00
417,120.00
418,80.00
419,80.00
420,80.00
421,80.00
422,80.00
423,80.00
424,80.00
425,120.00
426,120.00
427,120.00
428,80.00
429,80.00
430,120.00
431,80.00
432,80.00
433,80.00
434,80.00
435,80.00
436,80.00
437,80.00
438,80.00
439,80.00
440,80.00
441,80.00
442,80.00
443,80.00
444,80.00
445,80.00
446,80.00
447,80.00
448,80.00
449,80.00
450,80.00
451,80.00
452,80.00
453,80.00
454,80.00
455,80.00
456,80.00
457,80.00
458,80.00
459,80.00
460,80.00
461,80.00
462,80.00
463,80.00
464,80.00
465,80.00
466,80.00
467,80.00
468,80.00
469,80.00
470,40.00
471,80.00
472,120.00
473,80.00
474,80.00
475,40.00
476,80.00
477,80.00
478,80.00
479,80.00
480,80.00
481,80.00
482,80.00
483,120.00
484,80.00
485,80.00
486,80.00
487,80.00
488,40.00
489,40.00
490,80.00
491,80.00
492,80.00
493,80.00
494,40.00
495,80.00
496,120.00
497,80.00
498,80.00
499,80.00
500,80.00
501,80.00
502,80.00
503,80.00
504,40.00
505,80.00
506,80.00
507,80.00
508,120.00
509,40.00
510,40.00
511,40.00
512,80.00
513,120.00
514,80.00
515,40.00
516,80.00
517,80.00
518,120.00
519,80.00
520,80.00
521,40.00
522,80.00
523,120.00
524,80.00
525,40.00
526,40.00
527,80.00
528,80.00
529,80.00
530,80.00
531,40.00
532,80.00
533,120.00
534,120.00
535,40.00
536,40.00
537,80.00
538,40.00
539,40.00
540,120.00
541,80.00
542,80.00
543,40.00
544,40.00
545,80.00
546,80.00
547,80.00
548,40.00
549,80.00
550,80.00
551,120.00
552,80.00
553,40.00
554,40.00
555,40.00
556,80.00
557,80.00
558,80.00
559,80.00
560,80.00
561,40.00
562,80.00
563,80.00
564,80.00
565,80.00
566,80.00
567,80.00
568,80.00
569,80.00
570,40.00
571,80.00
572,40.00
573,80.00
574,80.00
575,40.00
576,80.00
577,80.00
578,80.00
579,80.00
580,80.00
581,40.00
582,80.00
583,120.00
584,80.00
585,40.00
586,40.00
587,40.00
588,40.00
589,80.00
590,80.00
591,80.00
592,40.00
593,40.00
594,40.00
595,80.00
596,120.00
597,80.00
598,40.00
599,40.00
600,80.00
601,40.00
602,80.00
603,80.00
604,80.00
605,40.00
606,80.00
607,80.00
608,80.00
609,80.00
610,80.00
611,80.00
612,40.00
613,80.00
614,80.00
615,80.00
616,80.00
617,40.00
618,40.00
619,40.00
620,80.00
621,80.00
622,80.00
623,80.00
624,80.00
625,80.00
626,80.00
627,80.00
628,40.00
629,40.00
630,80.00
631,80.00
632,80.00
633,80.00
634,40.00
635,40.00
636,80.00
637,80.00
638,80.00
639,40.00
640,80.00
641,40.00
642,80.00
643,80.00
644,80.00
645,80.00
646,80.00
647,80.00
648,80.00
649,80.00
650,40.00
651,80.00
652,80.00
653,80.00
654,80.00
655,80.00
656,40.00
657,40.00
658,80.00
659,80.00
660,80.00
661,40.00
662,80.00
663,80.00
664,80.00
665,40.00
666,80.00
667,40.00
668,80.00
669,80.00
670,40.00
671,80.00
672,80.00
673,80.00
674,80.00
675,80.00
676,80.00
677,80.00
678,80.00
679,80.00
680,40.00
681,80.00
682,80.00
683,40.00
684,40.00
685,80.00
686,80.00
687,80.00
688,80.00
689,80.00
690,80.00
691,80.00
692,80.00
693,80.00
694,40.00
695,80.00
696,80.00
697,80.00
698,40.00
699,80.00
700,80.00
701,80.00
702,80.00
703,80.00
704,80.00
705,80.00
706,80.00
707,80.00
708,80.00
709,80.00
710,80.00
711,80.00
712,80.00
713,80.00
714,80.00
715,80.00
716,80.00
717,80.00
718,80.00
719,80.00
720,80.00
721,80.00
722,80.00
723,80.00
724,80.00
725,80.00
726,80.00
727,120.00
728,80.00
729,120.00
730,80.00
731,80.00
732,80.00
733,80.00
734,80.00
735,80.00
736,120.00
737,120.00
738,80.00
739,80.00
740,80.00
741,80.00
742,120.00
743,120.00
744,120.00
745,80.00
746,80.00
747,120.00
748,120.00
749,120.00
750,80.00
751,80.00
752,120.00
753,120.00
754,120.00
755,80.00
756,120.00
757,80.00
758,120.00
759,120.00
760,120.00
761,80.00
762,80.00
763,80.00
764,120.00
765,80.00
766,120.00
767,80.00
768,120.00
769,120.00
770,120.00
771,120.00
772,120.00
773,120.00
774,120.00
775,120.00
776,120.00
777,120.00
778,120.00
779,160.00
780,160.00
781,-120.00
782,-80.00
783,-40.00
784,-40.00
785,0.00
786,40.00
787,40.00
788,40.00
789,40.00
790,40.00
791,40.00
792,80.00
793,80.00
794,80.00
795,40.00
796,80.00
797,120.00
798,120.00
799,80.00
800,80.00
801,80.00
802,120.00
803,120.00
804,120.00
805,120.00
806,120.00
807,120.00
808,120.00
809,120.00
810,120.00
811,120.00
812,120.00
813,120.00
814,160.00
815,120.00
816,120.00
817,120.00
818,120.00
819,120.00
820,160.00
821,120.00
822,120.00
823,120.00
824,120.00
825,120.00
826,120.00
827,120.00
828,160.00
829,200.00
830,120.00
831,80.00
832,120.00
833,120.00
834,120.00
835,120.00
836,120.00
837,160.00
838,120.00
839,120.00
840,120.00
841,120.00
842,160.00
843,-1400.00
844,-3160.00
845,-3200.00
846,-3200.00
847,-3160.00
848,-3160.00
849,-3160.00
850,-3160.00
851,-3160.00
852,-3160.00
853,-3160.00
854,-3160.00
855,-3160.00
856,-3160.00
857,-3160.00
858,-3160.00
859,-3160.00
860,-3160.00
861,-3160.00
862,-3160.00
863,-3160.00
864,-3160.00
865,-3160.00
866,-3160.00
867,-3160.00
868,-3160.00
869,-3160.00
870,-3160.00
871,-3160.00
872,-3160.00
873,-3160.00
874,-3160.00
875,-3160.00
876,-3160.00
877,-3160.00
878,-3160.00
879,-3160.00
880,-3160.00
881,-3160.00
882,-3160.00
883,-3160.00
884,-3160.00
885,-3160.00
886,-3160.00
887,-3160.00
888,-3160.00
889,-3160.00
890,-3160.00
891,-3160.00
892,-3160.00
893,-3160.00
894,-3160.00
895,-3160.00
896,-3160.00
897,-3120.00
898,-3160.00
899,-3160.00
900,-3160.00
901,-3160.00
902,-3160.00
903,-3120.00
904,-3120.00
905,-3160.00
906,-3160.00
907,-3160.00
908,-3160.00
909,-3160.00
910,-3160.00
911,-3160.00
912,-3160.00
913,-3160.00
914,-3160.00
915,-3160.00
916,-3160.00
917,-3200.00
918,-3160.00
919,-3160.00
920,-3160.00
921,-3160.00
922,-3160.00
923,-3160.00
924,-3160.00
925,-3160.00
926,-3120.00
927,-3160.00
928,-3160.00
929,-3160.00
930,-3160.00
931,-3160.00
932,-3160.00
933,-3160.00
934,-3160.00
935,-3120.00
936,-3160.00
937,-3160.00
938,-3160.00
939,-3160.00
940,-3160.00
941,-3160.00
942,-3160.00
943,-3160.00
944,-3160.00
945,-3160.00
946,-3160.00
947,-3160.00
948,-3160.00
949,-3160.00
950,-3160.00
951,-3160.00
952,-3160.00
953,-3160.00
954,-3160.00
955,-3160.00
956,-3120.00
957,-3160.00
958,-3120.00
959,-3160.00
960,-3160.00
961,-3160.00
962,-3120.00
963,-3160.00
964,-3160.00
965,-3160.00
966,-3160.00
967,-3160.00
968,-3120.00
969,-3160.00
970,-3160.00
971,-3120.00
972,-3120.00
973,-3160.00
974,-3160.00
975,-3160.00
976,-3160.00
977,-3160.00
978,-3160.00
979,-3160.00
980,-3160.00
981,-3160.00
982,-3160.00
983,-3120.00
984,-3160.00
985,-3160.00
986,-3160.00
987,-3160.00
988,-3160.00
989,-3120.00
990,-3160.00
991,-3160.00
992,-3160.00
993,-3160.00
994,-3160.00
995,-3160.00
996,-3160.00
997,-3120.00
998,-3160.00
999,-3160.00
1000,-3160.00
1001,-3160.00
1002,-3160.00
1003,-3160.00
1004,-3160.00
1005,-3160.00
1006,-3160.00
1007,-3160.00
1008,-3120.00
1009,-3160.00
1010,-3160.00
1011,-3160.00
1012,-3160.00
1013,-3160.00
1014,-3120.00
1015,-3160.00
1016,-3160.00
1017,-3160.00
1018,-3120.00
1019,-3160.00
1020,-3160.00
1021,-3120.00
1022,-3120.00
1023,-3160.00
1024,-3160.00
1025,-3160.00
1026,-3120.00
1027,-3160.00
1028,-3120.00
1029,-3160.00
1030,-3160.00
1031,-3160.00
1032,-3160.00
1033,-3160.00
1034,-3160.00
1035,-3160.00
1036,-3120.00
1037,-3120.00
1038,-3160.00
1039,-3160.00
1040,-3120.00
1041,-3120.00
1042,-3160.00
1043,-3160.00
1044,-3160.00
1045,-3160.00
1046,-2960.00
1047,-2600.00
1048,-2280.00
1049,-2040.00
1050,-1800.00
1051,-1600.00
1052,-1360.00
1053,-1240.00
1054,-1120.00
1055,-960.00
1056,-840.00
1057,-760.00
1058,-640.00
1059,-560.00
1060,-440.00
1061,-440.00
1062,-360.00
1063,-320.00
1064,-240.00
1065,-200.00
1066,-200.00
1067,-200.00
1068,-120.00
1069,-120.00
1070,-80.00
1071,-40.00
1072,-40.00
1073,-40.00
1074,0.00
1075,40.00
1076,40.00
1077,40.00
1078,40.00
1079,40.00
1080,40.00
1081,40.00
1082,120.00
1083,80.00
1084,40.00
1085,80.00
1086,120.00
1087,120.00
1088,80.00
1089,80.00
1090,80.00
1091,120.00
1092,120.00
1093,120.00
1094,80.00
1095,120.00
1096,120.00
1097,120.00
1098,120.00
1099,80.00
1100,120.00
1101,120.00
1102,120.00
1103,120.00
1104,80.00
1105,120.00
1106,80.00
1107,80.00
1108,-240.00
1109,-3080.00
1110,-3120.00
1111,-3120.00
1112,-3160.00
1113,-3120.00
1114,-3120.00
1115,-3120.00
1116,-3160.00
1117,-3160.00
1118,-3120.00
1119,-3120.00
1120,-3120.00
1121,-3160.00
1122,-3120.00
1123,-3080.00
1124,-3080.00
1125,-3120.00
1126,-3120.00
1127,-3080.00
1128,-3120.00
1129,-3120.00
1130,-3120.00
1131,-3160.00
1132,-3120.00
1133,-3160.00
1134,-3120.00
1135,-3160.00
1136,-3120.00
1137,-3120.00
1138,-3120.00
1139,-3120.00
1140,-3160.00
1141,-3120.00
1142,-3080.00
1143,-3120.00
1144,-3120.00
1145,-3120.00
1146,-3120.00
1147,-3120.00
1148,-3120.00
1149,-3160.00
1150,-3120.00
1151,-3080.00
1152,-3120.00
1153,-3160.00
1154,-3120.00
1155,-3160.00
1156,-3080.00
1157,-3120.00
1158,-3160.00
1159,-3120.00
1160,-3160.00
1161,-3160.00
1162,-3120.00
1163,-3160.00
1164,-3080.00
1165,-3120.00
1166,-3080.00
1167,-3160.00
1168,-3160.00
1169,-3120.00
1170,-3120.00
1171,-2960.00
1172,-2600.00
1173,-2320.00
1174,-2000.00
1175,-1800.00
1176,-1600.00
1177,-1400.00
1178,-1240.00
1179,-1080.00
1180,-920.00
1181,-840.00
1182,-760.00
1183,-640.00
1184,-560.00
1185,-480.00
1186,-400.00
1187,-320.00
1188,-320.00
1189,-320.00
1190,-280.00
1191,-200.00
1192,-200.00
1193,-120.00
1194,-120.00
1195,-120.00
1196,-40.00
1197,-40.00
1198,-40.00
1199,-40.00
1200,40.00
1201,40.00
1202,40.00
1203,40.00
1204,80.00
1205,80.00
1206,80.00
1207,80.00
1208,80.00
1209,80.00
1210,80.00
1211,80.00
1212,80.00
1213,80.00
1214,120.00
1215,80.00
1216,80.00
1217,120.00
1218,80.00
1219,120.00
1220,80.00
1221,120.00
1222,120.00
1223,120.00
1224,80.00
1225,80.00
1226,120.00
1227,120.00
1228,120.00
1229,80.00
1230,120.00
1231,-240.00
1232,-3040.00
1233,-3120.00
1234,-3120.00
1235,-3120.00
1236,-3120.00
1237,-3080.00
1238,-3120.00
1239,-3120.00
1240,-3120.00
1241,-3080.00
1242,-3120.00
1243,-3120.00
1244,-3120.00
1245,-3080.00
1246,-3080.00
1247,-3120.00
1248,-3120.00
1249,-3120.00
1250,-3080.00
1251,-3120.00
1252,-3080.00
1253,-3120.00
1254,-3080.00
1255,-3080.00
1256,-3120.00
1257,-3120.00
1258,-3120.00
1259,-3080.00
1260,-3080.00
1261,-3120.00
1262,-3120.00
1263,-3080.00
1264,-3120.00
1265,-3080.00
1266,-3120.00
1267,-3120.00
1268,-3080.00
1269,-3120.00
1270,-3120.00
1271,-3120.00
1272,-3120.00
1273,-3080.00
1274,-3080.00
1275,-3120.00
1276,-3080.00
1277,-3120.00
1278,-3080.00
1279,-3080.00
1280,-3120.00
1281,-3120.00
1282,-3080.00
1283,-3120.00
1284,-3120.00
1285,-3120.00
1286,-3120.00
1287,-3120.00
1288,-3080.00
1289,-3120.00
1290,-3120.00
1291,-3120.00
1292,-3120.00
1293,-3120.00
1294,-2960.00
1295,-2560.00
1296,-2280.00
1297,-2000.00
1298,-1800.00
1299,-1600.00
1300,-1360.00
1301,-1240.00
1302,-1080.00
1303,-920.00
1304,-840.00
1305,-720.00
1306,-640.00
1307,-560.00
1308,-480.00
1309,-440.00
1310,-320.00
1311,-320.00
1312,-320.00
1313,-240.00
1314,-200.00
1315,-200.00
1316,-120.00
1317,-120.00
1318,-120.00
1319,-80.00
1320,-40.00
1321,-40.00
1322,-40.00
1323,0.00
1324,0.00
1325,40.00
1326,0.00
1327,40.00
1328,40.00
1329,40.00
1330,40.00
1331,40.00
1332,40.00
1333,80.00
1334,80.00
1335,80.00
1336,80.00
1337,80.00
1338,120.00
1339,80.00
1340,80.00
1341,80.00
1342,80.00
1343,80.00
1344,80.00
1345,80.00
1346,120.00
1347,80.00
1348,120.00
1349,120.00
1350,80.00
1351,80.00
1352,80.00
1353,80.00
1354,120.00
1355,120.00
1356,-360.00
1357,-3040.00
1358,-3120.00
1359,-3120.00
1360,-3080.00
1361,-3080.00
1362,-3080.00
1363,-3160.00
1364,-3080.00
1365,-3120.00
1366,-3080.00
1367,-3120.00
1368,-3120.00
1369,-3120.00
1370,-3120.00
1371,-3120.00
1372,-3120.00
1373,-3120.00
1374,-3080.00
1375,-3120.00
1376,-3080.00
1377,-3080.00
1378,-3120.00
1379,-3120.00
1380,-3080.00
1381,-3080.00
1382,-3120.00
1383,-3120.00
1384,-3120.00
1385,-3080.00
1386,-3120.00
1387,-3120.00
1388,-3080.00
1389,-3080.00
1390,-3120.00
1391,-3160.00
1392,-3120.00
1393,-3080.00
1394,-3120.00
1395,-3120.00
1396,-3120.00
1397,-3080.00
1398,-3120.00
1399,-3160.00
1400,-3160.00
1401,-3120.00
1402,-3080.00
1403,-3080.00
1404,-3120.00
1405,-3120.00
1406,-3120.00
1407,-3120.00
1408,-3080.00
1409,-3120.00
1410,-3080.00
1411,-3120.00
1412,-3120.00
1413,-3120.00
1414,-3120.00
1415,-3120.00
1416,-3120.00
1417,-3120.00
1418,-3120.00
1419,-2960.00
1420,-2560.00
1421,-2280.00
1422,-2040.00
1423,-1840.00
1424,-1600.00
1425,-1360.00
1426,-1240.00
1427,-1080.00
1428,-960.00
1429,-840.00
1430,-760.00
1431,-640.00
1432,-560.00
1433,-480.00
1434,-440.00
1435,-360.00
1436,-320.00
1437,-320.00
1438,-280.00
1439,-240.00
1440,-200.00
1441,-200.00
1442,-120.00
1443,-80.00
1444,-80.00
1445,-80.00
1446,-40.00
1447,0.00
1448,40.00
1449,0.00
1450,-40.00
1451,0.00
1452,0.00
1453,40.00
1454,40.00
1455,40.00
1456,40.00
1457,40.00
1458,40.00
1459,80.00
1460,40.00
1461,80.00
1462,40.00
1463,80.00
1464,80.00
1465,80.00
1466,80.00
1467,80.00
1468,80.00
1469,80.00
1470,80.00
1471,80.00
1472,80.00
1473,80.00
1474,40.00
1475,120.00
1476,120.00
1477,80.00
1478,80.00
1479,80.00
1480,80.00
1481,-280.00
1482,-3040.00
1483,-3120.00
1484,-3120.00
1485,-3080.00
1486,-3080.00
1487,-3080.00
1488,-3120.00
1489,-3080.00
1490,-3120.00
1491,-3080.00
1492,-3160.00
1493,-3120.00
1494,-3080.00
1495,-3080.00
1496,-3120.00
1497,-3120.00
1498,-3120.00
1499,-3120.00
1500,-3120.00
1501,-3160.00
1502,-3080.00
1503,-3080.00
1504,-3120.00
1505,-3120.00
1506,-3160.00
1507,-3120.00
1508,-3080.00
1509,-3080.00
1510,-3120.00
1511,-3160.00
1512,-3120.00
1513,-3120.00
1514,-3120.00
1515,-3160.00
1516,-3120.00
1517,-3120.00
1518,-3080.00
1519,-3120.00
1520,-3160.00
1521,-3120.00
1522,-3080.00
1523,-3080.00
1524,-3120.00
1525,-3160.00
1526,-3160.00
1527,-3160.00
1528,-3120.00
1529,-3120.00
1530,-3160.00
1531,-3080.00
1532,-3120.00
1533,-3120.00
1534,-3120.00
1535,-3120.00
1536,-3080.00
1537,-3080.00
1538,-3120.00
1539,-3080.00
1540,-3120.00
1541,-3120.00
1542,-3120.00
1543,-3120.00
1544,-2920.00
1545,-2560.00
1546,-2320.00
1547,-2040.00
1548,-1800.00
1549,-1600.00
1550,-1360.00
1551,-1280.00
1552,-1120.00
1553,-960.00
1554,-880.00
1555,-760.00
1556,-680.00
1557,-600.00
1558,-480.00
1559,-440.00
1560,-400.00
1561,-320.00
1562,-280.00
1563,-280.00
1564,-240.00
1565,-200.00
1566,-160.00
1567,-120.00
1568,-120.00
1569,-80.00
1570,-80.00
1571,-40.00
1572,-40.00
1573,-40.00
1574,0.00
1575,0.00
1576,0.00
1577,0.00
1578,40.00
1579,40.00
1580,40.00
1581,40.00
1582,40.00
1583,40.00
1584,40.00
1585,40.00
1586,80.00
1587,40.00
1588,80.00
1589,80.00
1590,40.00
1591,40.00
1592,80.00
1593,80.00
1594,80.00
1595,80.00
1596,80.00
1597,80.00
1598,80.00
1599,80.00
1600,80.00
1601,80.00
1602,80.00
1603,40.00
1604,80.00
1605,80.00
1606,-320.00
1607,-3080.00
1608,-3120.00
1609,-3120.00
1610,-3080.00
1611,-3120.00
1612,-3120.00
1613,-3120.00
1614,-3120.00
1615,-3080.00
1616,-3080.00
1617,-3160.00
1618,-3120.00
1619,-3080.00
1620,-3080.00
1621,-3120.00
1622,-3160.00
1623,-3080.00
1624,-3120.00
1625,-3120.00
1626,-3080.00
1627,-3080.00
1628,-3080.00
1629,-3120.00
1630,-3120.00
1631,-3080.00
1632,-3080.00
1633,-3080.00
1634,-3120.00
1635,-3120.00
1636,-3120.00
1637,-3120.00
1638,-3080.00
1639,-3080.00
1640,-3160.00
1641,-3080.00
1642,-3080.00
1643,-3080.00
1644,-3120.00
1645,-3120.00
1646,-3120.00
1647,-3160.00
1648,-3160.00
1649,-3120.00
1650,-3120.00
1651,-3120.00
1652,-3080.00
1653,-3120.00
1654,-3120.00
1655,-3120.00
1656,-3120.00
1657,-3120.00
1658,-3120.00
1659,-3120.00
1660,-3160.00
1661,-3080.00
1662,-3120.00
1663,-3120.00
1664,-3120.00
1665,-3120.00
1666,-3120.00
1667,-3120.00
1668,-3120.00
1669,-2920.00
1670,-2560.00
1671,-2320.00
1672,-2040.00
1673,-1840.00
1674,-1560.00
1675,-1400.00
1676,-1280.00
1677,-1120.00
1678,-960.00
1679,-840.00
1680,-760.00
1681,-640.00
1682,-600.00
1683,-520.00
1684,-440.00
1685,-400.00
1686,-320.00
1687,-320.00
1688,-320.00
1689,-280.00
1690,-200.00
1691,-120.00
1692,-120.00
1693,-120.00
1694,-120.00
1695,-80.00
1696,-40.00
1697,-40.00
1698,-40.00
1699,-40.00
1700,0.00
1701,0.00
1702,40.00
1703,0.00
1704,0.00
1705,40.00
1706,40.00
1707,40.00
1708,40.00
1709,40.00
1710,40.00
1711,80.00
1712,40.00
1713,40.00
1714,40.00
1715,40.00
1716,80.00
1717,80.00
1718,40.00
1719,80.00
1720,80.00
1721,80.00
1722,80.00
1723,80.00
1724,80.00
1725,80.00
1726,40.00
1727,80.00
1728,80.00
1729,80.00
1730,40.00
1731,-360.00
1732,-3080.00
1733,-3080.00
1734,-3120.00
1735,-3080.00
1736,-3120.00
1737,-3160.00
1738,-3080.00
1739,-3120.00
1740,-3120.00
1741,-3120.00
1742,-3120.00
1743,-3080.00
1744,-3120.00
1745,-3120.00
1746,-3160.00
1747,-3080.00
1748,-3120.00
1749,-3120.00
1750,-3160.00
1751,-3120.00
1752,-3080.00
1753,-3120.00
1754,-3120.00
1755,-3080.00
1756,-3080.00
1757,-3080.00
1758,-3120.00
1759,-3120.00
1760,-3080.00
1761,-3080.00
1762,-3080.00
1763,-3120.00
1764,-3080.00
1765,-3120.00
1766,-3120.00
1767,-3120.00
1768,-3120.00
1769,-3120.00
1770,-3080.00
1771,-3120.00
1772,-3120.00
1773,-3120.00
1774,-3120.00
1775,-3080.00
1776,-3080.00
1777,-3080.00
1778,-3120.00
1779,-3080.00
1780,-3080.00
1781,-3120.00
1782,-3120.00
1783,-3120.00
1784,-3080.00
1785,-3120.00
1786,-3080.00
1787,-3120.00
1788,-3120.00
1789,-3120.00
1790,-3120.00
1791,-3120.00
1792,-3120.00
1793,-3120.00
1794,-2880.00
1795,-2560.00
1796,-2360.00
1797,-2040.00
1798,-1840.00
1799,-1600.00
1800,-1080.00
1801,-920.00
1802,-880.00
1803,-800.00
1804,-680.00
1805,-560.00
1806,-480.00
1807,-480.00
1808,-400.00
1809,-320.00
1810,-320.00
1811,-280.00
1812,-200.00
1813,-240.00
1814,-200.00
1815,-160.00
1816,-120.00
1817,-120.00
1818,-80.00
1819,-80.00
1820,-40.00
1821,-40.00
1822,0.00
1823,0.00
1824,0.00
1825,0.00
1826,0.00
1827,40.00
1828,40.00
1829,40.00
1830,0.00
1831,40.00
1832,80.00
1833,40.00
1834,40.00
1835,40.00
1836,40.00
1837,80.00
1838,80.00
1839,40.00
1840,40.00
1841,40.00
1842,120.00
1843,80.00
1844,40.00
1845,40.00
1846,40.00
1847,80.00
1848,80.00
1849,80.00
1850,80.00
1851,80.00
1852,40.00
1853,40.00
1854,-440.00
1855,-3080.00
1856,-3120.00
1857,-3120.00
1858,-3120.00
1859,-3120.00
1860,-3120.00
1861,-3120.00
1862,-3160.00
1863,-3120.00
1864,-3120.00
1865,-3080.00
1866,-3160.00
1867,-3160.00
1868,-3160.00
1869,-3120.00
1870,-3120.00
1871,-3120.00
1872,-3120.00
1873,-3160.00
1874,-3160.00
1875,-3120.00
1876,-3160.00
1877,-3160.00
1878,-3160.00
1879,-3120.00
1880,-3120.00
1881,-3160.00
1882,-3160.00
1883,-3160.00
1884,-3160.00
1885,-3120.00
1886,-3120.00
1887,-3160.00
1888,-3160.00
1889,-3160.00
1890,-3160.00
1891,-3160.00
1892,-3160.00
1893,-3160.00
1894,-3160.00
1895,-3160.00
1896,-3160.00
1897,-3160.00
1898,-3160.00
1899,-3160.00
1900,-3160.00
1901,-3160.00
1902,-3160.00
1903,-3160.00
1904,-3160.00
1905,-3160.00
1906,-3160.00
1907,-3160.00
1908,-3160.00
1909,-3160.00
1910,-3160.00
1911,-3160.00
1912,-3160.00
1913,-3160.00
1914,-3160.00
1915,-3160.00
1916,-3160.00
1917,-2960.00
1918,-2640.00
1919,-2320.00
1920,-2040.00
1921,-1800.00
1922,-1600.00
1923,-1400.00
1924,-1240.00
1925,-1120.00
1926,-960.00
1927,-840.00
1928,-800.00
1929,-640.00
1930,-560.00
1931,-480.00
1932,-480.00
1933,-360.00
1934,-320.00
1935,-280.00
1936,-240.00
1937,-200.00
1938,-160.00
1939,-120.00
1940,-120.00
1941,-80.00
1942,-80.00
1943,-40.00
1944,0.00
1945,-40.00
1946,0.00
1947,40.00
1948,40.00
1949,40.00
1950,40.00
1951,80.00
1952,80.00
1953,40.00
1954,40.00
1955,80.00
1956,80.00
1957,120.00
1958,80.00
1959,80.00
1960,120.00
1961,120.00
1962,120.00
1963,120.00
1964,80.00
1965,120.00
1966,120.00
1967,120.00
1968,80.00
1969,80.00
1970,120.00
1971,80.00
1972,120.00
1973,120.00
1974,120.00
1975,120.00
1976,120.00
1977,120.00
1978,120.00
1979,-320.00
1980,-3120.00
1981,-3200.00
1982,-3200.00
1983,-3160.00
1984,-3200.00
1985,-3200.00
1986,-3160.00
1987,-3200.00
1988,-3160.00
1989,-3160.00
1990,-3160.00
1991,-3200.00
1992,-3160.00
1993,-3160.00
1994,-3160.00
1995,-3160.00
1996,-3160.00
1997,-3160.00
1998,-3160.00
1999,-3160.00
2000,-3160.00
2001,-3160.00
2002,-3200.00
2003,-3160.00
2004,-3160.00
2005,-3160.00
2006,-3160.00
2007,-3160.00
2008,-3120.00
2009,-3160.00
2010,-3160.00
2011,-3160.00
2012,-3160.00
2013,-3160.00
2014,-3160.00
2015,-3200.00
2016,-3160.00
2017,-3160.00
2018,-3160.00
2019,-3160.00
2020,-3160.00
2021,-3160.00
2022,-3160.00
2023,-3160.00
2024,-3160.00
2025,-3160.00
2026,-3160.00
2027,-3160.00
2028,-3160.00
2029,-3160.00
2030,-3160.00
2031,-3160.00
2032,-3160.00
2033,-3160.00
2034,-3160.00
2035,-3160.00
2036,-3160.00
2037,-3160.00
2038,-3120.00
2039,-3160.00
2040,-3200.00
2041,-3160.00
2042,-2960.00
2043,-2560.00
2044,-2320.00
2045,-2000.00
2046,-1800.00
2047,-1600.00
2048,-1360.00
2049,-1240.00
2050,-1080.00
2051,-920.00
2052,-840.00
2053,-720.00
2054,-640.00
2055,-560.00
2056,-480.00
2057,-440.00
2058,-320.00
2059,-320.00
2060,-240.00
2061,-240.00
2062,-200.00
2063,-120.00
2064,-120.00
2065,-120.00
2066,-80.00
2067,-40.00
2068,0.00
2069,0.00
2070,0.00
2071,40.00
2072,40.00
2073,40.00
2074,40.00
2075,40.00
2076,80.00
2077,80.00
2078,80.00
2079,40.00
2080,120.00
2081,120.00
2082,80.00
2083,80.00
2084,80.00
2085,120.00
2086,120.00
2087,120.00
2088,120.00
2089,160.00
2090,160.00
2091,160.00
2092,80.00
2093,120.00
2094,120.00
2095,120.00
2096,120.00
2097,120.00
2098,120.00
2099,120.00
2100,120.00
2101,120.00
2102,120.00
2103,160.00
2104,-440.00
2105,-3080.00
2106,-3160.00
2107,-3160.00
2108,-3120.00
2109,-3120.00
2110,-3120.00
2111,-3120.00
2112,-3120.00
2113,-3120.00
2114,-3160.00
2115,-3160.00
2116,-3120.00
2117,-3120.00
2118,-3160.00
2119,-3160.00
2120,-3160.00
2121,-3160.00
2122,-3120.00
2123,-3160.00
2124,-3160.00
2125,-3160.00
2126,-3160.00
2127,-3160.00
2128,-3120.00
2129,-3160.00
2130,-3160.00
2131,-3120.00
2132,-3160.00
2133,-3160.00
2134,-3160.00
2135,-3160.00
2136,-3160.00
2137,-3120.00
2138,-3120.00
2139,-3120.00
2140,-3120.00
2141,-3160.00
2142,-3160.00
2143,-3160.00
2144,-3160.00
2145,-3120.00
2146,-3160.00
2147,-3160.00
2148,-3160.00
2149,-3160.00
2150,-3120.00
2151,-3120.00
2152,-3160.00
2153,-3160.00
2154,-3120.00
2155,-3120.00
2156,-3160.00
2157,-3160.00
2158,-3120.00
2159,-3120.00
2160,-3160.00
2161,-3160.00
2162,-3120.00
2163,-3160.00
2164,-3160.00
2165,-3160.00
2166,-3160.00
2167,-2920.00
2168,-2520.00
2169,-2280.00
2170,-2000.00
2171,-1800.00
2172,-1600.00
2173,-1360.00
2174,-1240.00
2175,-1080.00
2176,-920.00
2177,-840.00
2178,-720.00
2179,-640.00
2180,-520.00
2181,-480.00
2182,-440.00
2183,-320.00
2184,-320.00
2185,-280.00
2186,-200.00
2187,-200.00
2188,-200.00
2189,-120.00
2190,-80.00
2191,-120.00
2192,-80.00
2193,-40.00
2194,-40.00
2195,0.00
2196,40.00
2197,40.00
2198,40.00
2199,40.00
2200,40.00
2201,80.00
2202,80.00
2203,80.00
2204,80.00
2205,80.00
2206,80.00
2207,80.00
2208,120.00
2209,120.00
2210,120.00
2211,120.00
2212,120.00
2213,120.00
2214,120.00
2215,120.00
2216,120.00
2217,120.00
2218,120.00
2219,120.00
2220,120.00
2221,80.00
2222,120.00
2223,120.00
2224,160.00
2225,120.00
2226,120.00
2227,120.00
2228,120.00
2229,-320.00
2230,-3080.00
2231,-3160.00
2232,-3120.00
2233,-3120.00
2234,-3080.00
2235,-3120.00
2236,-3120.00
2237,-3080.00
2238,-3160.00
2239,-3120.00
2240,-3120.00
2241,-3120.00
2242,-3080.00
2243,-3120.00
2244,-3160.00
2245,-3080.00
2246,-3120.00
2247,-3120.00
2248,-3120.00
2249,-3120.00
2250,-3120.00
2251,-3120.00
2252,-3120.00
2253,-3120.00
2254,-3080.00
2255,-3120.00
2256,-3120.00
2257,-3120.00
2258,-3160.00
2259,-3160.00
2260,-3120.00
2261,-3120.00
2262,-3120.00
2263,-3120.00
2264,-3120.00
2265,-3080.00
2266,-3120.00
2267,-3160.00
2268,-3120.00
2269,-3080.00
2270,-3120.00
2271,-3120.00
2272,-3160.00
2273,-3160.00
2274,-3080.00
2275,-3120.00
2276,-3160.00
2277,-3120.00
2278,-3120.00
2279,-3120.00
2280,-3160.00
2281,-3120.00
2282,-3120.00
2283,-3120.00
2284,-3160.00
2285,-3120.00
2286,-3120.00
2287,-3120.00
2288,-3160.00
2289,-3120.00
2290,-3120.00
2291,-3120.00
2292,-2920.00
2293,-2560.00
2294,-2280.00
2295,-2000.00
2296,-1800.00
2297,-1600.00
2298,-1360.00
2299,-1240.00
2300,-1080.00
2301,-920.00
2302,-840.00
2303,-720.00
2304,-680.00
2305,-560.00
2306,-480.00
2307,-400.00
2308,-320.00
2309,-320.00
2310,-280.00
2311,-240.00
2312,-200.00
2313,-160.00
2314,-120.00
2315,-120.00
2316,-80.00
2317,-40.00
2318,-40.00
2319,-40.00
2320,0.00
2321,0.00
2322,0.00
2323,40.00
2324,40.00
2325,40.00
2326,40.00
2327,40.00
2328,40.00
2329,80.00
2330,80.00
2331,80.00
2332,80.00
2333,80.00
2334,80.00
2335,80.00
2336,80.00
2337,120.00
2338,80.00
2339,80.00
2340,120.00
2341,80.00
2342,120.00
2343,80.00
2344,80.00
2345,80.00
2346,80.00
2347,120.00
2348,120.00
2349,120.00
2350,120.00
2351,120.00
2352,120.00
2353,120.00
2354,-520.00
2355,-3080.00
2356,-3160.00
2357,-3120.00
2358,-3120.00
2359,-3120.00
2360,-3120.00
2361,-3120.00
2362,-3080.00
2363,-3120.00
2364,-3120.00
2365,-3120.00
2366,-3160.00
2367,-3120.00
2368,-3120.00
2369,-3120.00
2370,-3120.00
2371,-3120.00
2372,-3120.00
2373,-3120.00
2374,-3120.00
2375,-3080.00
2376,-3120.00
2377,-3120.00
2378,-3120.00
2379,-3120.00
2380,-3120.00
2381,-3120.00
2382,-3120.00
2383,-3120.00
2384,-3080.00
2385,-3120.00
2386,-3080.00
2387,-3120.00
2388,-3120.00
2389,-3120.00
2390,-3120.00
2391,-3120.00
2392,-3080.00
2393,-3080.00
2394,-3120.00
2395,-3120.00
2396,-3120.00
2397,-3120.00
2398,-3120.00
2399,-3080.00
2400,-3120.00
2401,-3080.00
2402,-3120.00
2403,-3120.00
2404,-3120.00
2405,-3120.00
2406,-3080.00
2407,-3120.00
2408,-3160.00
2409,-3120.00
2410,-3080.00
2411,-3120.00
2412,-3120.00
2413,-3120.00
2414,-3080.00
2415,-2920.00
2416,-2560.00
2417,-2280.00
2418,-2000.00
2419,-1760.00
2420,-1560.00
2421,-1360.00
2422,-1240.00
2423,-1080.00
2424,-920.00
2425,-840.00
2426,-760.00
2427,-640.00
2428,-560.00
2429,-480.00
2430,-440.00
2431,-360.00
2432,-320.00
2433,-280.00
2434,-240.00
2435,-200.00
2436,-200.00
2437,-160.00
2438,-120.00
2439,-80.00
2440,-80.00
2441,-80.00
2442,-40.00
2443,-40.00
2444,0.00
2445,0.00
2446,40.00
2447,40.00
2448,40.00
2449,40.00
2450,40.00
2451,80.00
2452,40.00
2453,40.00
2454,80.00
2455,80.00
2456,80.00
2457,80.00
2458,80.00
2459,80.00
2460,120.00
2461,120.00
2462,80.00
2463,40.00
2464,80.00
2465,80.00
2466,120.00
2467,120.00
2468,120.00
2469,80.00
2470,80.00
2471,120.00
2472,120.00
2473,120.00
2474,120.00
2475,120.00
2476,80.00
2477,-480.00
2478,-3080.00
2479,-3080.00
2480,-3120.00
2481,-3120.00
2482,-3120.00
2483,-3120.00
2484,-3120.00
2485,-3080.00
2486,-3120.00
2487,-3080.00
2488,-3120.00
2489,-3080.00
2490,-3120.00
2491,-3160.00
2492,-3120.00
2493,-3120.00
2494,-3080.00
2495,-3160.00
2496,-3160.00
2497,-3160.00
2498,-3120.00
2499,-3120.00
2500,-3120.00
2501,-3120.00
2502,-3160.00
2503,-3120.00
2504,-3120.00
2505,-3120.00
2506,-3120.00
2507,-3120.00
2508,-3120.00
2509,-3160.00
2510,-3120.00
2511,-3120.00
2512,-3120.00
2513,-3120.00
2514,-3120.00
2515,-3120.00
2516,-3120.00
2517,-3080.00
2518,-3120.00
2519,-3120.00
2520,-3120.00
2521,-3120.00
2522,-3120.00
2523,-3120.00
2524,-3120.00
2525,-3080.00
2526,-3080.00
2527,-3080.00
2528,-3120.00
2529,-3120.00
2530,-3120.00
2531,-3120.00
2532,-3120.00
2533,-3160.00
2534,-3080.00
2535,-3120.00
2536,-3120.00
2537,-3120.00
2538,-3080.00
2539,-3120.00
2540,-2920.00
2541,-2600.00
2542,-2320.00
2543,-2000.00
2544,-1800.00
2545,-1600.00
2546,-1400.00
2547,-1280.00
2548,-1080.00
2549,-920.00
2550,-840.00
2551,-760.00
2552,-640.00
2553,-560.00
2554,-480.00
2555,-440.00
2556,-400.00
2557,-320.00
2558,-320.00
2559,-240.00
2560,-200.00
2561,-200.00
2562,-200.00
2563,-160.00
2564,-120.00
2565,-80.00
2566,-40.00
2567,-40.00
2568,-40.00
2569,-40.00
2570,-40.00
2571,40.00
2572,40.00
2573,40.00
2574,0.00
2575,40.00
2576,40.00
2577,80.00
2578,40.00
2579,40.00
2580,40.00
2581,40.00
2582,80.00
2583,80.00
2584,40.00
2585,40.00
2586,40.00
2587,80.00
2588,80.00
2589,120.00
2590,80.00
2591,80.00
2592,80.00
2593,80.00
2594,120.00
2595,80.00
2596,80.00
2597,80.00
2598,80.00
2599,120.00
2600,120.00
2601,80.00
2602,-520.00
2603,-3040.00
2604,-3080.00
2605,-3120.00
2606,-3120.00
2607,-3120.00
2608,-3080.00
2609,-3080.00
2610,-3120.00
2611,-3120.00
2612,-3120.00
2613,-3080.00
2614,-3120.00
2615,-3120.00
2616,-3120.00
2617,-3080.00
2618,-3080.00
2619,-3080.00
2620,-3120.00
2621,-3080.00
2622,-3080.00
2623,-3120.00
2624,-3120.00
2625,-3120.00
2626,-3120.00
2627,-3120.00
2628,-3080.00
2629,-3120.00
2630,-3080.00
2631,-3080.00
2632,-3120.00
2633,-3080.00
2634,-3080.00
2635,-3080.00
2636,-3080.00
2637,-3080.00
2638,-3120.00
2639,-3080.00
2640,-3080.00
2641,-3080.00
2642,-3080.00
2643,-3120.00
2644,-3080.00
2645,-3080.00
2646,-3080.00
2647,-3080.00
2648,-3080.00
2649,-3080.00
2650,-3080.00
2651,-3120.00
2652,-3120.00
2653,-3120.00
2654,-3080.00
2655,-3120.00
2656,-3080.00
2657,-3120.00
2658,-3120.00
2659,-3080.00
2660,-3120.00
2661,-3120.00
2662,-3120.00
2663,-3120.00
2664,-3120.00
2665,-2920.00
2666,-2560.00
2667,-2280.00
2668,-2000.00
2669,-1800.00
2670,-1600.00
2671,-1400.00
2672,-1240.00
2673,-1080.00
2674,-960.00
2675,-840.00
2676,-760.00
2677,-640.00
2678,-560.00
2679,-480.00
2680,-440.00
2681,-400.00
2682,-320.00
2683,-320.00
2684,-280.00
2685,-200.00
2686,-160.00
2687,-200.00
2688,-120.00
2689,-120.00
2690,-80.00
2691,-80.00
2692,-80.00
2693,-40.00
2694,-40.00
2695,0.00
2696,0.00
2697,0.00
2698,0.00
2699,0.00
2700,40.00
2701,40.00
2702,40.00
2703,40.00
2704,40.00
2705,40.00
2706,40.00
2707,40.00
2708,40.00
2709,80.00
2710,80.00
2711,80.00
2712,40.00
2713,40.00
2714,80.00
2715,40.00
2716,40.00
2717,80.00
2718,80.00
2719,80.00
2720,40.00
2721,80.00
2722,80.00
2723,40.00
2724,80.00
2725,80.00
2726,40.00
2727,-600.00
2728,-3040.00
2729,-3080.00
2730,-3080.00
2731,-3120.00
2732,-3080.00
2733,-3080.00
2734,-3120.00
2735,-3120.00
2736,-3120.00
2737,-3120.00
2738,-3120.00
2739,-3120.00
2740,-3120.00
2741,-3120.00
2742,-3120.00
2743,-3120.00
2744,-3120.00
2745,-3120.00
2746,-3120.00
2747,-3120.00
2748,-3160.00
2749,-3120.00
2750,-3120.00
2751,-3080.00
2752,-3120.00
2753,-3120.00
2754,-3120.00
2755,-3120.00
2756,-3080.00
2757,-3120.00
2758,-3120.00
2759,-3120.00
2760,-3120.00
2761,-3120.00
2762,-3160.00
2763,-3120.00
2764,-3080.00
2765,-3080.00
2766,-3120.00
2767,-3120.00
2768,-3120.00
2769,-3120.00
2770,-3080.00
2771,-3080.00
2772,-3160.00
2773,-3120.00
2774,-3120.00
2775,-3120.00
2776,-3120.00
2777,-3120.00
2778,-3120.00
2779,-3120.00
2780,-3120.00
2781,-3160.00
2782,-3080.00
2783,-3080.00
2784,-3160.00
2785,-3160.00
2786,-3120.00
2787,-3120.00
2788,-3120.00
2789,-3080.00
2790,-2920.00
2791,-2560.00
2792,-2320.00
2793,-2040.00
2794,-1840.00
2795,-1600.00
2796,-1360.00
2797,-1280.00
2798,-1120.00
2799,-1000.00
2800,-840.00
2801,-760.00
2802,-680.00
2803,-600.00
2804,-520.00
2805,-440.00
2806,-400.00
2807,-320.00
2808,-320.00
2809,-320.00
2810,-240.00
2811,-200.00
2812,-160.00
2813,-200.00
2814,-160.00
2815,-120.00
2816,-80.00
2817,-40.00
2818,-80.00
2819,-40.00
2820,0.00
2821,-40.00
2822,0.00
2823,0.00
2824,40.00
2825,0.00
2826,0.00
2827,0.00
2828,40.00
2829,40.00
2830,40.00
2831,40.00
2832,80.00
2833,80.00
2834,40.00
2835,40.00
2836,40.00
2837,40.00
2838,80.00
2839,80.00
2840,80.00
2841,80.00
2842,40.00
2843,40.00
2844,80.00
2845,80.00
2846,80.00
2847,40.00
2848,40.00
2849,40.00
2850,80.00
2851,80.00
2852,-640.00
2853,-3080.00
2854,-3120.00
2855,-3080.00
2856,-3080.00
2857,-3120.00
2858,-3120.00
2859,-3160.00
2860,-3080.00
2861,-3120.00
2862,-3120.00
2863,-3120.00
2864,-3160.00
2865,-3120.00
2866,-3080.00
2867,-3120.00
2868,-3160.00
2869,-3120.00
2870,-3120.00
2871,-3120.00
2872,-3120.00
2873,-3120.00
2874,-3120.00
2875,-3080.00
2876,-3120.00
2877,-3160.00
2878,-3120.00
2879,-3080.00
2880,-3120.00
2881,-3120.00
2882,-3120.00
2883,-3120.00
2884,-3120.00
2885,-3120.00
2886,-3120.00
2887,-3120.00
2888,-3120.00
2889,-3120.00
2890,-3120.00
2891,-3080.00
2892,-3160.00
2893,-3080.00
2894,-3080.00
2895,-3080.00
2896,-3120.00
2897,-3120.00
2898,-3120.00
2899,-3120.00
2900,-3120.00
2901,-3120.00
2902,-3080.00
2903,-3120.00
2904,-3120.00
2905,-3120.00
2906,-3080.00
2907,-3120.00
2908,-3080.00
2909,-3160.00
2910,-3120.00
2911,-3120.00
2912,-3120.00
2913,-3120.00
2914,-3120.00
2915,-2920.00
2916,-2520.00
2917,-2280.00
2918,-2040.00
2919,-1800.00
2920,-1600.00
2921,-1360.00
2922,-1240.00
2923,-1120.00
2924,-1000.00
2925,-840.00
2926,-760.00
2927,-640.00
2928,-600.00
2929,-520.00
2930,-440.00
2931,-400.00
2932,-320.00
2933,-320.00
2934,-280.00
2935,-240.00
2936,-200.00
2937,-160.00
2938,-120.00
2939,-120.00
2940,-80.00
2941,-80.00
2942,-40.00
2943,-40.00
2944,0.00
2945,0.00
2946,0.00
2947,0.00
2948,40.00
2949,40.00
2950,40.00
2951,40.00
2952,40.00
2953,40.00
2954,80.00
2955,40.00
2956,40.00
2957,80.00
2958,120.00
2959,80.00
2960,80.00
2961,80.00
2962,80.00
2963,80.00
2964,80.00
2965,80.00
2966,120.00
2967,120.00
2968,120.00
2969,120.00
2970,80.00
2971,120.00
2972,80.00
2973,80.00
2974,80.00
2975,120.00
2976,120.00
2977,-680.00
2978,-3120.00
2979,-3160.00
2980,-3160.00
2981,-3160.00
2982,-3160.00
2983,-3200.00
2984,-3160.00
2985,-3160.00
2986,-3160.00
2987,-3160.00
2988,-3200.00
2989,-3160.00
2990,-3160.00
2991,-3160.00
2992,-3160.00
2993,-3200.00
2994,-3160.00
2995,-3160.00
2996,-3160.00
2997,-3200.00
2998,-3160.00
2999,-3160.00
3000,-3200.00
3001,-3160.00
3002,-3200.00
3003,-3200.00
3004,-3200.00
3005,-3200.00
3006,-3160.00
3007,-3160.00
3008,-3200.00
3009,-3200.00
3010,-3160.00
3011,-3200.00
3012,-3200.00
3013,-3160.00
3014,-3200.00
3015,-3160.00
3016,-3160.00
3017,-3200.00
3018,-3200.00
3019,-3160.00
3020,-3160.00
3021,-3200.00
3022,-3200.00
3023,-3160.00
3024,-3200.00
3025,-3240.00
3026,-3200.00
3027,-3200.00
3028,-3160.00
3029,-3200.00
3030,-3160.00
3031,-3200.00
3032,-3200.00
3033,-3160.00
3034,-3200.00
3035,-3200.00
3036,-3200.00
3037,-3200.00
3038,-2960.00
3039,-2600.00
3040,-2360.00
3041,-2040.00
3042,-1800.00
3043,-1600.00
3044,-1360.00
3045,-1240.00
3046,-1080.00
3047,-920.00
3048,-840.00
3049,-720.00
3050,-640.00
3051,-560.00
3052,-480.00
3053,-360.00
3054,-320.00
3055,-320.00
3056,-320.00
3057,-240.00
3058,-200.00
3059,-200.00
3060,-120.00
3061,-40.00
3062,-40.00
3063,-40.00
3064,-40.00
3065,-40.00
3066,0.00
3067,40.00
3068,40.00
3069,40.00
3070,0.00
3071,80.00
3072,40.00
3073,80.00
3074,80.00
3075,80.00
3076,120.00
3077,120.00
3078,80.00
3079,80.00
3080,120.00
3081,120.00
3082,120.00
3083,120.00
3084,80.00
3085,120.00
3086,120.00
3087,120.00
3088,120.00
3089,120.00
3090,120.00
3091,120.00
3092,120.00
3093,120.00
3094,120.00
3095,80.00
3096,120.00
3097,120.00
3098,160.00
3099,120.00
3100,-640.00
3101,-3120.00
3102,-3160.00
3103,-3200.00
3104,-3160.00
3105,-3160.00
3106,-3160.00
3107,-3160.00
3108,-3160.00
3109,-3160.00
3110,-3160.00
3111,-3160.00
3112,-3160.00
3113,-3160.00
3114,-3160.00
3115,-3160.00
3116,-3160.00
3117,-3160.00
3118,-3160.00
3119,-3160.00
3120,-3160.00
3121,-3160.00
3122,-3160.00
3123,-3160.00
3124,-3160.00
3125,-3160.00
3126,-3120.00
3127,-3120.00
3128,-3160.00
3129,-3160.00
3130,-3160.00
3131,-3120.00
3132,-3160.00
3133,-3160.00
3134,-3120.00
3135,-3160.00
3136,-3120.00
3137,-3160.00
3138,-3160.00
3139,-3160.00
3140,-3160.00
3141,-3160.00
3142,-3160.00
3143,-3160.00
3144,-3160.00
3145,-3120.00
3146,-3160.00
3147,-3160.00
3148,-3160.00
3149,-3120.00
3150,-3160.00
3151,-3160.00
3152,-3160.00
3153,-3160.00
3154,-3120.00
3155,-3120.00
3156,-3160.00
3157,-3160.00
3158,-3160.00
3159,-3160.00
3160,-3160.00
3161,-3160.00
3162,-3160.00
3163,-2920.00
3164,-2560.00
3165,-2280.00
3166,-2000.00
3167,-1800.00
3168,-1560.00
3169,-1360.00
3170,-1200.00
3171,-1040.00
3172,-880.00
3173,-840.00
3174,-760.00
3175,-640.00
3176,-520.00
3177,-440.00
3178,-400.00
3179,-360.00
3180,-320.00
3181,-240.00
3182,-200.00
3183,-200.00
3184,-160.00
3185,-120.00
3186,-80.00
3187,-80.00
3188,-40.00
3189,-40.00
3190,0.00
3191,40.00
3192,40.00
3193,40.00
3194,40.00
3195,40.00
3196,40.00
3197,80.00
3198,80.00
3199,80.00
3200,80.00
3201,120.00
3202,120.00
3203,80.00
3204,120.00
3205,120.00
3206,80.00
3207,120.00
3208,120.00
3209,120.00
3210,120.00
3211,120.00
3212,120.00
3213,120.00
3214,120.00
3215,120.00
3216,120.00
3217,120.00
3218,120.00
3219,160.00
3220,120.00
3221,80.00
3222,120.00
3223,120.00
3224,120.00
3225,-560.00
3226,-3080.00
3227,-3120.00
3228,-3120.00
3229,-3120.00
3230,-3160.00
3231,-3120.00
3232,-3120.00
3233,-3120.00
3234,-3120.00
3235,-3160.00
3236,-3120.00
3237,-3120.00
3238,-3160.00
3239,-3120.00
3240,-3120.00
3241,-3120.00
3242,-3120.00
3243,-3120.00
3244,-3160.00
3245,-3160.00
3246,-3120.00
3247,-3120.00
3248,-3120.00
3249,-3120.00
3250,-3120.00
3251,-3120.00
3252,-3120.00
3253,-3120.00
3254,-3120.00
3255,-3120.00
3256,-3120.00
3257,-3120.00
3258,-3120.00
3259,-3120.00
3260,-3120.00
3261,-3120.00
3262,-3120.00
3263,-3160.00
3264,-3120.00
3265,-3160.00
3266,-3120.00
3267,-3160.00
3268,-3120.00
3269,-3080.00
3270,-3120.00
3271,-3160.00
3272,-3120.00
3273,-3160.00
3274,-3160.00
3275,-3120.00
3276,-3160.00
3277,-3120.00
3278,-3080.00
3279,-3120.00
3280,-3160.00
3281,-3120.00
3282,-3120.00
3283,-3120.00
3284,-3160.00
3285,-3120.00
3286,-3120.00
3287,-3080.00
3288,-3120.00
3289,-3160.00
3290,-3160.00
3291,-3120.00
3292,-3120.00
3293,-3120.00
3294,-3160.00
3295,-3160.00
3296,-3120.00
3297,-3120.00
3298,-3120.00
3299,-3120.00
3300,-3120.00
3301,-3120.00
3302,-3120.00
3303,-3120.00
3304,-3160.00
3305,-3120.00
3306,-3120.00
3307,-2840.00
3308,-2480.00
3309,-2200.00
3310,-1960.00
3311,-1720.00
3312,-1520.00
3313,-1360.00
3314,-1200.00
3315,-1040.00
3316,-880.00
3317,-840.00
3318,-720.00
3319,-600.00
3320,-520.00
3321,-480.00
3322,-400.00
3323,-320.00
3324,-320.00
3325,-240.00
3326,-200.00
3327,-160.00
3328,-200.00
3329,-120.00
3330,-120.00
3331,-120.00
3332,-80.00
3333,-40.00
3334,-40.00
3335,0.00
3336,0.00
3337,0.00
3338,40.00
3339,40.00
3340,40.00
3341,40.00
3342,40.00
3343,80.00
3344,40.00
3345,80.00
3346,80.00
3347,80.00
3348,80.00
3349,80.00
3350,80.00
3351,120.00
3352,120.00
3353,80.00
3354,120.00
3355,120.00
3356,80.00
3357,120.00
3358,80.00
3359,120.00
3360,120.00
3361,80.00
3362,120.00
3363,120.00
3364,80.00
3365,120.00
3366,120.00
3367,80.00
3368,120.00
3369,-40.00
3370,-80.00
3371,0.00
3372,-40.00
3373,0.00
3374,0.00
3375,0.00
3376,40.00
3377,40.00
3378,0.00
3379,40.00
3380,40.00
3381,40.00
3382,80.00
3383,120.00
3384,80.00
3385,80.00
3386,80.00
3387,80.00
3388,120.00
3389,120.00
3390,120.00
3391,80.00
3392,120.00
3393,120.00
3394,120.00
3395,120.00
3396,80.00
3397,120.00
3398,120.00
3399,120.00
3400,120.00
3401,80.00
3402,120.00
3403,120.00
3404,120.00
3405,120.00
3406,120.00
3407,80.00
3408,120.00
3409,120.00
3410,120.00
3411,120.00
3412,120.00
3413,80.00
3414,80.00
3415,120.00
3416,120.00
3417,120.00
3418,120.00
3419,120.00
3420,120.00
3421,120.00
3422,120.00
3423,80.00
3424,120.00
3425,160.00
3426,120.00
3427,120.00
3428,80.00
3429,80.00
3430,120.00
3431,120.00
3432,-2960.00
3433,-3120.00
3434,-3120.00
3435,-3120.00
3436,-3080.00
3437,-3120.00
3438,-3080.00
3439,-3080.00
3440,-3120.00
3441,-3120.00
3442,-3080.00
3443,-3080.00
3444,-3120.00
3445,-3120.00
3446,-3160.00
3447,-3120.00
3448,-3080.00
3449,-3120.00
3450,-3120.00
3451,-3120.00
3452,-3120.00
3453,-3120.00
3454,-3120.00
3455,-3120.00
3456,-3120.00
3457,-3080.00
3458,-3080.00
3459,-3120.00
3460,-3120.00
3461,-3080.00
3462,-3120.00
3463,-3080.00
3464,-3120.00
3465,-3120.00
3466,-3120.00
3467,-3120.00
3468,-3120.00
3469,-3120.00
3470,-3120.00
3471,-3080.00
3472,-3120.00
3473,-3120.00
3474,-3120.00
3475,-3080.00
3476,-3120.00
3477,-3120.00
3478,-3160.00
3479,-3120.00
3480,-3120.00
3481,-3080.00
3482,-3120.00
3483,-3120.00
3484,-3120.00
3485,-3120.00
3486,-3080.00
3487,-3120.00
3488,-3120.00
3489,-3080.00
3490,-3080.00
3491,-3080.00
3492,-3120.00
3493,-3080.00
3494,-2960.00
3495,-2640.00
3496,-2360.00
3497,-2080.00
3498,-1840.00
3499,-1600.00
3500,-1400.00
3501,-1280.00
3502,-1120.00
3503,-960.00
3504,-840.00
3505,-800.00
3506,-680.00
3507,-560.00
3508,-480.00
3509,-440.00
3510,-360.00
3511,-320.00
3512,-280.00
3513,-240.00
3514,-200.00
3515,-160.00
3516,-120.00
3517,-120.00
3518,-80.00
3519,-80.00
3520,-80.00
3521,-40.00
3522,0.00
3523,0.00
3524,0.00
3525,40.00
3526,40.00
3527,40.00
3528,40.00
3529,40.00
3530,40.00
3531,80.00
3532,80.00
3533,80.00
3534,80.00
3535,120.00
3536,80.00
3537,80.00
3538,80.00
3539,120.00
3540,80.00
3541,120.00
3542,80.00
3543,80.00
3544,80.00
3545,120.00
3546,120.00
3547,80.00
3548,120.00
3549,120.00
3550,120.00
3551,120.00
3552,80.00
3553,120.00
3554,120.00
3555,120.00
3556,120.00
3557,-2960.00
3558,-3120.00
3559,-3080.00
3560,-3120.00
3561,-3080.00
3562,-3120.00
3563,-3080.00
3564,-3080.00
3565,-3120.00
3566,-3120.00
3567,-3120.00
3568,-3120.00
3569,-3080.00
3570,-3120.00
3571,-3120.00
3572,-3120.00
3573,-3120.00
3574,-3120.00
3575,-3160.00
3576,-3080.00
3577,-3080.00
3578,-3120.00
3579,-3160.00
3580,-3080.00
3581,-3080.00
3582,-3080.00
3583,-3120.00
3584,-3120.00
3585,-3080.00
3586,-3120.00
3587,-3120.00
3588,-3080.00
3589,-3080.00
3590,-3080.00
3591,-3080.00
3592,-3120.00
3593,-3120.00
3594,-3120.00
3595,-3120.00
3596,-3080.00
3597,-3120.00
3598,-3120.00
3599,-3120.00
3600,-3120.00
3601,-3120.00
3602,-3080.00
3603,-3080.00
3604,-3120.00
3605,-3120.00
3606,-3160.00
3607,-3120.00
3608,-3080.00
3609,-3080.00
3610,-3120.00
3611,-3120.00
3612,-3080.00
3613,-3120.00
3614,-3160.00
3615,-3120.00
3616,-3080.00
3617,-2960.00
3618,-2680.00
3619,-2360.00
3620,-2040.00
3621,-1840.00
3622,-1600.00
3623,-1400.00
3624,-1320.00
3625,-1120.00
3626,-1000.00
3627,-880.00
3628,-800.00
3629,-640.00
3630,-560.00
3631,-520.00
3632,-440.00
3633,-440.00
3634,-320.00
3635,-280.00
3636,-280.00
3637,-280.00
3638,-200.00
3639,-120.00
3640,-120.00
3641,-120.00
3642,-80.00
3643,-80.00
3644,-40.00
3645,0.00
3646,0.00
3647,0.00
3648,0.00
3649,0.00
3650,0.00
3651,40.00
3652,40.00
3653,40.00
3654,40.00
3655,40.00
3656,80.00
3657,80.00
3658,80.00
3659,40.00
3660,80.00
3661,80.00
3662,80.00
3663,80.00
3664,80.00
3665,80.00
3666,80.00
3667,80.00
3668,80.00
3669,80.00
3670,80.00
3671,120.00
3672,120.00
3673,80.00
3674,80.00
3675,80.00
3676,80.00
3677,80.00
3678,120.00
3679,120.00
3680,-2960.00
3681,-3120.00
3682,-3080.00
3683,-3160.00
3684,-3120.00
3685,-3120.00
3686,-3080.00
3687,-3120.00
3688,-3120.00
3689,-3080.00
3690,-3120.00
3691,-3080.00
3692,-3160.00
3693,-3120.00
3694,-3120.00
3695,-3080.00
3696,-3120.00
3697,-3160.00
3698,-3160.00
3699,-3120.00
3700,-3120.00
3701,-3120.00
3702,-3080.00
3703,-3080.00
3704,-3080.00
3705,-3120.00
3706,-3120.00
3707,-3160.00
3708,-3120.00
3709,-3120.00
3710,-3120.00
3711,-3080.00
3712,-3080.00
3713,-3120.00
3714,-3120.00
3715,-3120.00
3716,-3080.00
3717,-3120.00
3718,-3120.00
3719,-3160.00
3720,-3160.00
3721,-3120.00
3722,-3120.00
3723,-3120.00
3724,-3080.00
3725,-3120.00
3726,-3120.00
3727,-3120.00
3728,-3080.00
3729,-3160.00
3730,-3120.00
3731,-3120.00
3732,-3120.00
3733,-3120.00
3734,-3120.00
3735,-3120.00
3736,-3120.00
3737,-3120.00
3738,-3120.00
3739,-3080.00
3740,-3120.00
3741,-3120.00
3742,-2960.00
3743,-2680.00
3744,-2360.00
3745,-2080.00
3746,-1840.00
3747,-1640.00
3748,-1440.00
3749,-1280.00
3750,-1120.00
3751,-1000.00
3752,-840.00
3753,-800.00
3754,-680.00
3755,-600.00
3756,-520.00
3757,-440.00
3758,-400.00
3759,-320.00
3760,-320.00
3761,-320.00
3762,-240.00
3763,-200.00
3764,-160.00
3765,-200.00
3766,-120.00
3767,-80.00
3768,-80.00
3769,-80.00
3770,-40.00
3771,-40.00
3772,0.00
3773,0.00
3774,0.00
3775,0.00
3776,40.00
3777,40.00
3778,40.00
3779,40.00
3780,40.00
3781,40.00
3782,40.00
3783,40.00
3784,40.00
3785,40.00
3786,40.00
3787,80.00
3788,40.00
3789,40.00
3790,40.00
3791,80.00
3792,80.00
3793,40.00
3794,80.00
3795,80.00
3796,80.00
3797,80.00
3798,80.00
3799,80.00
3800,80.00
3801,80.00
3802,80.00
3803,80.00
3804,80.00
3805,-2960.00
3806,-3120.00
3807,-3160.00
3808,-3080.00
3809,-3120.00
3810,-3120.00
3811,-3160.00
3812,-3120.00
3813,-3120.00
3814,-3120.00
3815,-3080.00
3816,-3120.00
3817,-3120.00
3818,-3120.00
3819,-3080.00
3820,-3120.00
3821,-3120.00
3822,-3120.00
3823,-3080.00
3824,-3120.00
3825,-3120.00
3826,-3120.00
3827,-3120.00
3828,-3080.00
3829,-3080.00
3830,-3160.00
3831,-3120.00
3832,-3080.00
3833,-3120.00
3834,-3160.00
3835,-3080.00
3836,-3120.00
3837,-3120.00
3838,-3080.00
3839,-3160.00
3840,-3120.00
3841,-3120.00
3842,-3080.00
3843,-3120.00
3844,-3120.00
3845,-3120.00
3846,-3120.00
3847,-3120.00
3848,-3080.00
3849,-3120.00
3850,-3120.00
3851,-3120.00
3852,-3120.00
3853,-3120.00
3854,-3080.00
3855,-3120.00
3856,-3080.00
3857,-3120.00
3858,-3120.00
3859,-3120.00
3860,-3080.00
3861,-3120.00
3862,-3120.00
3863,-3160.00
3864,-3120.00
3865,-3120.00
3866,-3120.00
3867,-3000.00
3868,-2640.00
3869,-2360.00
3870,-2080.00
3871,-1880.00
3872,-1680.00
3873,-1480.00
3874,-1320.00
3875,-1120.00
3876,-1040.00
3877,-840.00
3878,-800.00
3879,-680.00
3880,-600.00
3881,-520.00
3882,-480.00
3883,-400.00
3884,-320.00
3885,-320.00
3886,-280.00
3887,-240.00
3888,-200.00
3889,-200.00
3890,-160.00
3891,-160.00
3892,-120.00
3893,-80.00
3894,-80.00
3895,-80.00
3896,-40.00
3897,-80.00
3898,-40.00
3899,-40.00
3900,0.00
3901,0.00
3902,40.00
3903,40.00
3904,40.00
3905,40.00
3906,0.00
3907,80.00
3908,40.00
3909,40.00
3910,40.00
3911,40.00
3912,40.00
3913,80.00
3914,80.00
3915,40.00
3916,40.00
3917,40.00
3918,80.00
3919,80.00
3920,80.00
3921,40.00
3922,40.00
3923,80.00
3924,80.00
3925,80.00
3926,40.00
3927,40.00
3928,80.00
3929,80.00
3930,-2960.00
3931,-3120.00
3932,-3160.00
3933,-3080.00
3934,-3120.00
3935,-3120.00
3936,-3120.00
3937,-3120.00
3938,-3080.00
3939,-3120.00
3940,-3120.00
3941,-3120.00
3942,-3120.00
3943,-3080.00
3944,-3080.00
3945,-3120.00
3946,-3120.00
3947,-3080.00
3948,-3120.00
3949,-3120.00
3950,-3120.00
3951,-3080.00
3952,-3080.00
3953,-3080.00
3954,-3120.00
3955,-3120.00
3956,-3120.00
3957,-3120.00
3958,-3160.00
3959,-3160.00
3960,-3120.00
3961,-3080.00
3962,-3080.00
3963,-3120.00
3964,-3120.00
3965,-3080.00
3966,-3120.00
3967,-3080.00
3968,-3120.00
3969,-3120.00
3970,-3120.00
3971,-3080.00
3972,-3120.00
3973,-3120.00
3974,120.00
3975,120.00
3976,80.00
3977,40.00
3978,80.00
3979,80.00
3980,80.00
3981,120.00
3982,120.00
3983,120.00
3984,80.00
3985,80.00
3986,80.00
3987,120.00
3988,120.00
3989,80.00
3990,80.00
3991,80.00
3992,120.00
3993,120.00
3994,120.00
3995,80.00
3996,40.00
3997,80.00
3998,120.00
3999,120.00
